Data from FLMT000111__0__14-18-36-088.txt Node

Date: Thu Oct 26 14:18:36 EDT 2023
User: Student
Spectrometer: FLMT00011
Trigger mode: 0
Integration Time (sec): 1.000000E-1
Scans to average: 5
Electric dark correction enabled: true
Nonlinearity correction enabled: false
Boxcar width: 0
XAxis mode: Wavelengths
Number of Pixels in Spectrum: 3648
>>>>>Begin Spectral Data<<<<<
171.25	-261.35
171.475	-261.35
171.699	-261.35
171.923	-223.67
172.147	-2.49
172.371	97.45
172.595	15.12
172.819	-0.03
173.043	17.99
173.267	-50
173.491	-0.44
173.715	36.83
173.939	-40.58
174.163	26.18
174.387	-40.99
174.611	-34.44
174.835	-27.07
175.059	-40.58
175.283	-14.78
175.507	-45.5
175.73	25.36
175.954	17.17
176.178	-52.05
176.402	-47.55
176.626	-9.45
176.85	-81.54
177.073	-47.55
177.297	-69.67
177.521	2.83
177.745	-20.51
177.969	8.16
178.192	-26.66
178.416	-0.44
178.64	-28.71
178.863	-15.19
179.087	-29.93
179.311	5.7
179.534	5.29
179.758	-75.4
179.982	82.29
180.205	2.42
180.429	-0.44
180.653	-14.37
180.876	4.06
181.1	-13.14
181.323	-25.43
181.547	-12.73
181.77	41.74
181.994	-4.13
182.217	32.32
182.441	41.74
182.664	-2.49
182.888	29.46
183.111	21.26
183.335	-47.96
183.558	20.45
183.782	91.71
184.005	13.07
184.228	6.52
184.452	18.81
184.675	-54.51
184.899	36.42
185.122	26.59
185.345	-51.23
185.569	-50.82
185.792	10.62
186.015	-84
186.238	-29.93
186.462	72.46
186.685	140.05
186.908	13.07
187.131	27.82
187.355	-51.64
187.578	-18.06
187.801	-1.26
188.024	-10.68
188.247	-11.91
188.471	-19.69
188.694	39.29
188.917	2.01
189.14	-29.52
189.363	54.85
189.586	-9.45
189.809	60.18
190.032	61
190.255	-18.06
190.478	-31.57
190.701	-63.52
190.924	21.26
191.147	-38.95
191.37	-25.02
191.593	67.55
191.816	-19.29
192.039	4.47
192.262	-20.51
192.485	6.52
192.708	6.93
192.931	-30.34
193.154	33.14
193.377	-46.32
193.6	31.91
193.822	-11.5
194.045	-30.34
194.268	13.89
194.491	87.62
194.714	14.3
194.936	-1.26
195.159	-13.55
195.382	26.18
195.605	-10.68
195.827	24.54
196.05	7.34
196.273	16.35
196.495	15.12
196.718	31.91
196.941	8.16
197.163	-12.73
197.386	8.57
197.609	-63.11
197.831	-22.15
198.054	93.76
198.277	15.53
198.499	-35.26
198.722	-18.47
198.944	-18.47
199.167	-6.59
199.389	-59.02
199.612	-38.95
199.834	69.19
200.057	64.27
200.279	-8.64
200.502	-48.78
200.724	-9.45
200.947	-20.51
201.169	16.35
201.391	-50.41
201.614	58.95
201.836	31.09
202.059	21.26
202.281	2.01
202.503	-19.69
202.726	-44.68
202.948	-0.85
203.17	-31.16
203.393	-9.86
203.615	-8.23
203.837	-44.68
204.059	2.42
204.282	9.39
204.504	-3.31
204.726	-48.78
204.948	-64.34
205.17	7.34
205.393	-41.81
205.615	-37.72
205.837	5.29
206.059	-12.73
206.281	34.37
206.503	-33.62
206.725	25.36
206.947	-52.87
207.17	11.02
207.392	-0.85
207.614	-41.4
207.836	-30.75
208.058	-2.49
208.28	-61.06
208.502	13.89
208.724	-3.72
208.946	51.57
209.168	42.15
209.39	31.5
209.611	46.25
209.833	36.01
210.055	45.84
210.277	9.39
210.499	-11.09
210.721	38.88
210.943	15.12
211.165	42.56
211.386	25.77
211.608	6.93
211.83	-43.86
212.052	-56.15
212.274	24.54
212.495	15.53
212.717	-66.39
212.939	-22.97
213.161	-32.8
213.382	-25.02
213.604	-13.55
213.826	-7.82
214.047	18.4
214.269	17.99
214.491	11.84
214.712	14.3
214.934	45.43
215.155	21.26
215.377	13.48
215.599	52.8
215.82	45.02
216.042	-1.26
216.263	-27.89
216.485	34.37
216.706	34.78
216.928	-15.6
217.149	-22.56
217.371	22.49
217.592	4.47
217.814	-22.97
218.035	-14.78
218.257	-2.9
218.478	-15.19
218.699	49.53
218.921	45.84
219.142	49.53
219.363	-17.24
219.585	23.72
219.806	-42.22
220.027	-2.08
220.249	21.26
220.47	10.62
220.691	8.98
220.913	26.18
221.134	44.61
221.355	-6.59
221.576	15.53
221.798	-63.11
222.019	-11.91
222.24	13.89
222.461	43.79
222.682	65.91
222.903	-19.29
223.125	58.95
223.346	17.58
223.567	-73.35
223.788	-46.32
224.009	-35.26
224.23	48.71
224.451	98.27
224.672	-0.85
224.893	2.83
225.114	-50
225.335	-66.8
225.556	5.29
225.777	55.67
225.998	16.76
226.219	13.07
226.44	22.08
226.661	36.42
226.882	33.14
227.103	5.7
227.324	-43.86
227.544	40.93
227.765	-19.29
227.986	-36.49
228.207	1.6
228.428	40.11
228.649	-16.01
228.869	-25.84
229.09	7.34
229.311	82.29
229.532	-45.09
229.752	23.72
229.973	-18.06
230.194	55.26
230.415	-18.06
230.635	43.38
230.856	-26.25
231.077	60.18
231.297	20.45
231.518	44.2
231.739	-16.83
231.959	21.26
232.18	-8.23
232.4	15.12
232.621	-7
232.841	-27.07
233.062	-76.22
233.283	-7.82
233.503	15.53
233.724	36.42
233.944	-39.36
234.165	-4.13
234.385	-11.09
234.605	29.46
234.826	-4.54
235.046	-5.36
235.267	-40.99
235.487	-2.49
235.708	32.32
235.928	-53.69
236.148	34.37
236.369	17.99
236.589	-36.08
236.809	-58.2
237.03	48.3
237.25	-6.59
237.47	15.12
237.69	15.53
237.911	4.47
238.131	27.82
238.351	0.79
238.571	13.48
238.792	-8.64
239.012	-50
239.232	-33.62
239.452	8.16
239.672	50.35
239.892	-33.62
240.112	-82.77
240.333	-36.49
240.553	10.62
240.773	54.44
240.993	-35.26
241.213	-29.12
241.433	-14.37
241.653	-7.41
241.873	-32.8
242.093	-21.33
242.313	5.29
242.533	6.52
242.753	6.93
242.973	82.29
243.193	8.16
243.413	9.8
243.633	-11.09
243.853	-35.26
244.072	33.14
244.292	-19.29
244.512	-29.93
244.732	6.52
244.952	-16.42
245.172	7.34
245.391	24.54
245.611	-13.55
245.831	-24.2
246.051	34.78
246.271	68.78
246.49	-49.19
246.71	9.39
246.93	6.11
247.149	0.38
247.369	-2.49
247.589	-0.44
247.808	9.8
248.028	-28.71
248.248	20.86
248.467	-31.16
248.687	-3.31
248.906	-39.76
249.126	-19.69
249.346	-32.39
249.565	-35.67
249.785	-31.57
250.004	51.17
250.224	-22.97
250.443	-18.47
250.663	22.49
250.882	104.41
251.102	-38.95
251.321	70.01
251.541	14.71
251.76	11.84
251.979	25.77
252.199	35.6
252.418	-51.64
252.638	4.47
252.857	18.81
253.076	13.07
253.296	4.06
253.515	-22.15
253.734	-0.85
253.953	-3.31
254.173	-69.26
254.392	-16.42
254.611	17.58
254.83	13.07
255.05	2.83
255.269	-3.31
255.488	-40.17
255.707	33.96
255.926	32.73
256.146	-27.89
256.365	53.62
256.584	-23.79
256.803	-17.24
257.022	42.15
257.241	-7
257.46	-40.17
257.679	6.11
257.898	-32.8
258.117	-8.64
258.336	36.01
258.555	-27.07
258.774	-60.65
258.993	28.23
259.212	-4.13
259.431	-79.9
259.65	3.65
259.869	-30.75
260.088	29.05
260.307	-4.13
260.526	-43.45
260.745	6.52
260.964	59.77
261.182	-37.72
261.401	-2.49
261.62	83.52
261.839	-9.86
262.058	28.23
262.276	-59.83
262.495	49.94
262.714	9.39
262.933	-1.26
263.151	-42.22
263.37	-2.49
263.589	74.92
263.807	-21.74
264.026	1.6
264.245	27.41
264.463	-22.15
264.682	-38.13
264.901	35.19
265.119	-8.64
265.338	-6.18
265.556	-47.14
265.775	-31.98
265.994	-4.95
266.212	13.07
266.431	-24.61
266.649	-12.32
266.868	-7
267.086	-49.19
267.305	-19.69
267.523	-4.95
267.742	-14.37
267.96	-2.9
268.178	34.78
268.397	31.09
268.615	-31.98
268.834	44.2
269.052	-45.09
269.27	27.41
269.489	-107.76
269.707	10.21
269.925	-0.44
270.143	87.62
270.362	11.02
270.58	71.64
270.798	-30.75
271.017	-22.56
271.235	-15.6
271.453	40.93
271.671	1.19
271.889	-17.24
272.108	-36.08
272.326	12.66
272.544	-27.48
272.762	39.7
272.98	-31.57
273.198	-25.84
273.416	-16.83
273.634	18.4
273.852	49.94
274.07	39.7
274.289	-19.29
274.507	-25.02
274.725	4.88
274.943	57.72
275.161	15.53
275.379	5.7
275.596	-66.8
275.814	-89.33
276.032	3.65
276.25	2.83
276.468	45.84
276.686	-29.52
276.904	-35.26
277.122	-27.89
277.34	48.71
277.557	64.27
277.775	-28.71
277.993	-1.67
278.211	82.7
278.429	85.16
278.646	-23.38
278.864	-6.59
279.082	-23.79
279.3	20.86
279.517	29.87
279.735	8.98
279.953	0.38
280.17	-43.45
280.388	-31.16
280.606	-59.02
280.823	90.49
281.041	58.95
281.259	-55.74
281.476	11.02
281.694	-7
281.911	8.16
282.129	7.75
282.346	-40.58
282.564	-53.28
282.781	-7.82
282.999	-2.9
283.216	-15.6
283.434	12.66
283.651	36.83
283.869	-17.24
284.086	-39.36
284.304	12.66
284.521	5.7
284.738	-57.38
284.956	3.65
285.173	-77.04
285.391	-28.3
285.608	-7.82
285.825	22.9
286.043	4.06
286.26	2.42
286.477	-22.56
286.694	4.06
286.912	57.31
287.129	49.12
287.346	-64.75
287.563	10.62
287.78	-50
287.998	-18.06
288.215	14.71
288.432	-11.09
288.649	1.6
288.866	24.95
289.083	12.66
289.3	73.69
289.518	38.47
289.735	8.98
289.952	-6.59
290.169	13.48
290.386	-18.06
290.603	-51.64
290.82	47.07
291.037	-75.81
291.254	10.21
291.471	12.25
291.688	-59.83
291.905	-4.54
292.122	-35.26
292.339	-81.13
292.555	-37.72
292.772	6.52
292.989	-6.59
293.206	24.13
293.423	-6.59
293.64	8.57
293.857	40.93
294.073	22.08
294.29	132.26
294.507	-9.45
294.724	-13.96
294.94	-54.51
295.157	-54.92
295.374	-12.32
295.591	17.99
295.807	47.07
296.024	-18.47
296.241	22.49
296.457	29.05
296.674	-15.6
296.891	-11.5
297.107	-10.68
297.324	-29.93
297.54	4.06
297.757	7.34
297.973	22.49
298.19	31.09
298.407	-38.95
298.623	-48.78
298.84	45.02
299.056	-30.34
299.272	-16.83
299.489	15.53
299.705	-18.06
299.922	-23.38
300.138	45.84
300.355	-23.38
300.571	41.33
300.787	-1.26
301.004	42.97
301.22	30.28
301.436	8.57
301.653	14.3
301.869	30.69
302.085	19.22
302.302	8.98
302.518	67.96
302.734	6.52
302.95	-35.26
303.167	11.84
303.383	17.99
303.599	33.55
303.815	12.66
304.031	-18.06
304.248	33.55
304.464	7.34
304.68	2.42
304.896	37.65
305.112	14.3
305.328	17.17
305.544	-29.93
305.76	-6.59
305.976	-20.92
306.192	-22.97
306.408	6.52
306.624	-52.05
306.84	17.99
307.056	-48.78
307.272	15.94
307.488	36.42
307.704	17.99
307.92	39.7
308.136	24.54
308.352	116.29
308.568	58.13
308.784	-5.77
309	27.82
309.215	-42.22
309.431	-4.13
309.647	-0.03
309.863	16.76
310.079	-27.07
310.294	3.65
310.51	-16.01
310.726	-40.58
310.942	71.64
311.157	12.25
311.373	86.8
311.589	-51.64
311.804	-36.49
312.02	44.2
312.236	-42.22
312.451	25.77
312.667	49.94
312.883	-52.05
313.098	26.18
313.314	39.7
313.529	8.16
313.745	43.38
313.961	50.35
314.176	15.53
314.392	31.91
314.607	-46.73
314.823	23.72
315.038	-37.31
315.253	7.34
315.469	-38.13
315.684	5.7
315.9	-79.09
316.115	31.5
316.331	85.57
316.546	24.95
316.761	-34.44
316.977	51.17
317.192	36.01
317.407	72.05
317.623	-56.56
317.838	24.13
318.053	5.29
318.268	-2.08
318.484	-58.2
318.699	1.6
318.914	-10.68
319.129	33.55
319.344	6.11
319.56	52.39
319.775	3.65
319.99	55.67
320.205	0.38
320.42	10.21
320.635	13.48
320.85	95.81
321.066	-25.02
321.281	-9.05
321.496	49.53
321.711	-9.86
321.926	-1.26
322.141	2.42
322.356	14.3
322.571	30.69
322.786	33.14
323.001	15.94
323.216	15.94
323.43	15.12
323.645	-12.73
323.86	40.11
324.075	5.29
324.29	-31.16
324.505	35.6
324.72	-35.67
324.935	37.24
325.149	19.63
325.364	0.38
325.579	11.84
325.794	-9.86
326.009	-8.64
326.223	-13.55
326.438	-27.48
326.653	6.11
326.867	45.43
327.082	62.63
327.297	-13.96
327.511	29.87
327.726	-22.97
327.941	13.89
328.155	-43.45
328.37	-24.61
328.585	-43.86
328.799	3.24
329.014	28.23
329.228	-17.65
329.443	-40.17
329.657	6.11
329.872	-18.47
330.086	-9.86
330.301	73.69
330.515	49.12
330.73	-36.9
330.944	-6.59
331.159	-24.2
331.373	17.99
331.587	-15.6
331.802	4.06
332.016	-11.09
332.231	-13.14
332.445	77.38
332.659	64.68
332.874	31.5
333.088	54.85
333.302	37.24
333.516	-13.14
333.731	-1.26
333.945	-4.95
334.159	5.7
334.373	-35.26
334.588	10.62
334.802	-2.49
335.016	15.12
335.23	-16.83
335.444	4.88
335.658	-19.69
335.872	46.25
336.087	25.36
336.301	57.31
336.515	-27.48
336.729	37.24
336.943	-1.67
337.157	45.43
337.371	-38.95
337.585	-25.84
337.799	59.36
338.013	11.02
338.227	-34.03
338.441	30.69
338.655	60.18
338.869	50.76
339.083	-22.56
339.296	-28.71
339.51	-13.14
339.724	15.94
339.938	-8.64
340.152	-22.15
340.366	65.09
340.58	33.55
340.793	-28.71
341.007	-9.05
341.221	-14.78
341.435	42.15
341.648	-3.31
341.862	11.43
342.076	-21.33
342.29	24.95
342.503	14.71
342.717	-27.89
342.931	-29.52
343.144	-22.97
343.358	-50
343.571	48.71
343.785	-31.98
343.999	74.1
344.212	91.71
344.426	7.34
344.639	11.84
344.853	8.98
345.066	-37.72
345.28	15.12
345.493	-17.24
345.707	-35.67
345.92	-60.65
346.134	-2.08
346.347	5.7
346.561	0.79
346.774	73.28
346.987	80.66
347.201	-23.79
347.414	-58.2
347.627	-39.76
347.841	-24.61
348.054	-10.68
348.267	67.55
348.481	-11.5
348.694	-35.67
348.907	11.84
349.12	23.72
349.334	-26.25
349.547	-72.94
349.76	13.89
349.973	-26.25
350.186	-40.17
350.4	40.52
350.613	35.6
350.826	-12.73
351.039	11.84
351.252	-9.05
351.465	24.54
351.678	-17.65
351.891	-7.41
352.104	-17.65
352.317	19.63
352.53	-17.24
352.743	-25.43
352.956	-23.79
353.169	13.89
353.382	37.24
353.595	-9.05
353.808	-28.71
354.021	-16.83
354.234	107.69
354.447	-23.79
354.66	33.55
354.873	22.9
355.086	138.82
355.298	5.29
355.511	1.19
355.724	6.52
355.937	74.92
356.15	52.8
356.362	11.43
356.575	-13.96
356.788	33.14
357.001	-40.58
357.213	9.8
357.426	44.61
357.639	31.09
357.851	9.8
358.064	36.42
358.277	54.03
358.489	35.19
358.702	34.37
358.914	-25.02
359.127	8.16
359.34	25.77
359.552	54.44
359.765	-22.56
359.977	90.49
360.19	13.48
360.402	20.04
360.615	5.7
360.827	-21.33
361.04	81.07
361.252	-20.1
361.465	-5.77
361.677	-5.36
361.889	26.18
362.102	-31.98
362.314	-18.47
362.526	49.12
362.739	18.81
362.951	-15.6
363.163	25.36
363.376	-4.54
363.588	-41.4
363.8	31.91
364.012	20.86
364.225	-38.54
364.437	12.66
364.649	34.37
364.861	-1.67
365.074	-45.09
365.286	39.7
365.498	24.13
365.71	10.21
365.922	-2.9
366.134	36.01
366.346	-17.65
366.558	23.31
366.77	2.42
366.983	45.02
367.195	-37.72
367.407	-22.15
367.619	52.8
367.831	9.8
368.043	-5.36
368.255	58.54
368.467	53.21
368.678	40.11
368.89	-56.97
369.102	4.47
369.314	-9.45
369.526	-0.85
369.738	-14.37
369.95	-2.9
370.162	8.57
370.373	24.95
370.585	-7.41
370.797	32.32
371.009	31.91
371.221	-0.03
371.432	-4.95
371.644	20.86
371.856	24.95
372.068	10.62
372.279	14.3
372.491	54.85
372.703	-26.66
372.914	-17.24
373.126	13.89
373.338	-110.21
373.549	13.07
373.761	2.01
373.972	-4.54
374.184	45.43
374.395	46.66
374.607	22.9
374.819	-43.86
375.03	6.52
375.242	31.5
375.453	-7.41
375.664	-11.91
375.876	46.66
376.087	10.21
376.299	70.83
376.51	13.48
376.722	17.99
376.933	13.89
377.144	82.29
377.356	-32.39
377.567	22.49
377.778	49.12
377.99	0.79
378.201	81.88
378.412	32.32
378.624	-5.77
378.835	-10.27
379.046	-31.57
379.257	1.19
379.468	28.64
379.68	-54.1
379.891	-71.71
380.102	28.23
380.313	-28.3
380.524	3.65
380.735	33.14
380.946	33.55
381.158	17.58
381.369	-34.85
381.58	48.71
381.791	-63.93
382.002	-50.41
382.213	-0.44
382.424	11.84
382.635	32.32
382.846	33.14
383.057	-3.72
383.268	-46.73
383.479	-19.29
383.69	22.9
383.9	66.73
384.111	7.75
384.322	-48.78
384.533	-0.03
384.744	15.12
384.955	38.06
385.166	44.2
385.376	-3.31
385.587	46.25
385.798	11.43
386.009	-46.73
386.22	2.01
386.43	74.1
386.641	126.12
386.852	330.92
387.062	672.11
387.273	857.66
387.484	824.07
387.694	776.56
387.905	291.19
388.116	113.01
388.326	26.59
388.537	33.14
388.747	63.86
388.958	48.71
389.168	15.12
389.379	-31.16
389.59	-12.32
389.8	-42.63
390.011	20.86
390.221	47.48
390.431	48.3
390.642	20.45
390.852	-5.77
391.063	-11.91
391.273	40.11
391.484	-23.38
391.694	12.25
391.904	12.25
392.115	9.8
392.325	23.31
392.535	-16.01
392.746	2.42
392.956	19.22
393.166	-41.81
393.376	11.43
393.587	91.71
393.797	76.97
394.007	33.55
394.217	21.67
394.427	48.71
394.638	1.19
394.848	57.31
395.058	99.91
395.268	-25.02
395.478	13.07
395.688	-11.91
395.898	1.6
396.108	28.23
396.318	1.19
396.528	36.01
396.738	20.86
396.948	16.76
397.158	-3.72
397.368	25.36
397.578	-33.62
397.788	55.26
397.998	-63.93
398.208	56.08
398.418	-81.95
398.628	8.16
398.838	-19.29
399.048	46.25
399.258	42.15
399.467	56.9
399.677	25.77
399.887	-11.5
400.097	-17.24
400.307	56.9
400.516	-22.56
400.726	14.3
400.936	32.73
401.146	16.35
401.355	35.19
401.565	49.12
401.775	-36.49
401.984	-33.21
402.194	-49.59
402.404	44.2
402.613	4.06
402.823	-31.57
403.032	1.19
403.242	-53.28
403.452	-36.08
403.661	4.47
403.871	-47.96
404.08	47.48
404.29	44.2
404.499	24.13
404.709	-43.04
404.918	17.99
405.128	23.31
405.337	-38.13
405.546	-70.89
405.756	-41.4
405.965	3.65
406.175	-0.03
406.384	29.05
406.593	-10.27
406.803	-79.9
407.012	9.39
407.221	-51.23
407.43	-33.62
407.64	6.11
407.849	-49.19
408.058	-44.68
408.267	-28.71
408.477	-79.09
408.686	-20.51
408.895	-32.39
409.104	3.24
409.313	-52.05
409.522	-23.79
409.732	19.63
409.941	16.35
410.15	3.65
410.359	60.59
410.568	-35.26
410.777	63.45
410.986	40.93
411.195	-0.85
411.404	-28.3
411.613	-0.03
411.822	47.48
412.031	19.22
412.24	34.37
412.449	-29.12
412.658	8.57
412.867	53.62
413.075	53.62
413.284	-7.82
413.493	52.8
413.702	32.32
413.911	39.7
414.12	6.11
414.328	-36.9
414.537	38.06
414.746	47.07
414.955	-40.17
415.164	-50
415.372	-23.79
415.581	83.52
415.79	-0.85
415.998	2.42
416.207	8.98
416.416	57.31
416.624	-4.95
416.833	53.21
417.042	42.15
417.25	92.53
417.459	-30.75
417.667	-18.88
417.876	33.55
418.084	12.25
418.293	-54.92
418.501	-7.41
418.71	21.26
418.918	0.38
419.127	-14.78
419.335	-40.99
419.544	-34.44
419.752	39.7
419.96	54.44
420.169	-36.9
420.377	22.08
420.586	16.35
420.794	21.26
421.002	5.7
421.211	76.97
421.419	-25.43
421.627	-45.5
421.835	17.99
422.044	-9.45
422.252	42.15
422.46	40.93
422.668	-48.78
422.877	-16.42
423.085	51.57
423.293	-18.06
423.501	-28.3
423.709	-9.86
423.917	-10.68
424.125	-34.03
424.333	-62.7
424.542	-14.37
424.75	45.02
424.958	29.05
425.166	-20.92
425.374	117.93
425.582	41.74
425.79	-19.69
425.998	-52.46
426.206	16.76
426.414	47.48
426.621	24.95
426.829	-5.77
427.037	-26.25
427.245	63.86
427.453	10.21
427.661	-10.68
427.869	41.33
428.077	-38.95
428.284	-36.9
428.492	9.8
428.7	-31.98
428.908	-63.52
429.115	71.64
429.323	0.38
429.531	-7.41
429.739	74.51
429.946	73.69
430.154	15.94
430.362	-18.47
430.569	9.8
430.777	27.41
430.985	-53.28
431.192	10.21
431.4	37.24
431.607	0.79
431.815	68.37
432.022	-5.36
432.23	27
432.437	-0.44
432.645	-22.97
432.852	-34.44
433.06	25.77
433.267	2.83
433.475	-15.19
433.682	58.54
433.89	-8.64
434.097	28.23
434.304	16.76
434.512	5.29
434.719	1.19
434.926	-38.95
435.134	-45.91
435.341	25.36
435.548	62.63
435.756	57.72
435.963	-47.55
436.17	45.84
436.377	25.36
436.585	-11.5
436.792	-47.55
436.999	4.88
437.206	45.43
437.413	2.42
437.621	-45.09
437.828	48.71
438.035	8.57
438.242	9.8
438.449	-7.41
438.656	65.5
438.863	34.37
439.07	-54.92
439.277	21.26
439.484	-22.97
439.691	11.84
439.898	-11.91
440.105	-29.52
440.312	-37.31
440.519	-63.93
440.726	2.83
440.933	-57.79
441.14	21.26
441.347	-8.23
441.553	12.25
441.76	7.75
441.967	32.73
442.174	2.42
442.381	-34.44
442.587	-29.12
442.794	-5.77
443.001	6.11
443.208	-29.12
443.414	24.54
443.621	7.34
443.828	26.18
444.035	35.19
444.241	-16.83
444.448	38.06
444.654	32.73
444.861	57.31
445.068	123.25
445.274	125.71
445.481	253.91
445.687	267.84
445.894	215.82
446.101	178.96
446.307	57.72
446.514	-13.96
446.72	-0.85
446.926	2.83
447.133	-32.39
447.339	-13.96
447.546	48.71
447.752	3.24
447.959	-83.59
448.165	-10.27
448.371	36.42
448.578	2.42
448.784	38.06
448.99	38.06
449.197	-45.91
449.403	56.9
449.609	-19.69
449.816	68.37
450.022	-4.95
450.228	48.71
450.434	49.12
450.64	-16.01
450.847	-22.56
451.053	4.47
451.259	1.19
451.465	9.8
451.671	65.91
451.877	42.56
452.083	27
