Data from FLMT000111__6__14-08-35-195.txt Node

Date: Thu Oct 26 14:08:35 EDT 2023
User: Student
Spectrometer: FLMT00011
Trigger mode: 0
Integration Time (sec): 1.000000E-1
Scans to average: 5
Electric dark correction enabled: true
Nonlinearity correction enabled: false
Boxcar width: 0
XAxis mode: Wavelengths
Number of Pixels in Spectrum: 3648
>>>>>Begin Spectral Data<<<<<
171.25	-205.31
171.475	-205.31
171.699	-205.31
171.923	-212.68
172.147	43.72
172.371	100.25
172.595	27.75
172.819	-32.87
173.043	-53.76
173.267	-23.04
173.491	31.44
173.715	31.85
173.939	-7.48
174.163	34.71
174.387	-16.9
174.611	-55.81
174.835	-36.15
175.059	-40.24
175.283	29.8
175.507	-32.87
175.73	55.6
175.954	12.19
176.178	-30.41
176.402	-24.68
176.626	-19.35
176.85	-76.29
177.073	-23.04
177.297	-10.34
177.521	-9.11
177.745	48.23
177.969	5.22
178.192	-5.43
178.416	-8.29
178.64	-56.63
178.863	19.15
179.087	-25.91
179.311	44.13
179.534	12.6
179.758	-71.37
179.982	63.79
180.205	24.47
180.429	10.96
180.653	-25.91
180.876	-0.1
181.1	-18.53
181.323	15.87
181.547	6.45
181.77	23.24
181.994	10.96
182.217	17.51
182.441	29.8
182.664	42.9
182.888	45.36
183.111	4.81
183.335	-48.84
183.558	17.92
183.782	54.37
184.005	51.51
184.228	-29.18
184.452	37.17
184.675	-69.73
184.899	68.3
185.122	-1.74
185.345	2.36
185.569	-68.09
185.792	19.97
186.015	-30.82
186.238	-60.31
186.462	76.49
186.685	95.33
186.908	1.13
187.131	17.92
187.355	1.95
187.578	16.69
187.801	1.13
188.024	-21.4
188.247	5.22
188.471	-11.57
188.694	62.16
188.917	13.82
189.14	-5.84
189.363	28.16
189.586	-23.45
189.809	31.44
190.032	22.83
190.255	-24.27
190.478	-33.69
190.701	-23.04
190.924	0.72
191.147	-73.83
191.37	-4.61
191.593	58.47
191.816	4.4
192.039	22.83
192.262	4.4
192.485	-7.88
192.708	27.75
192.931	13
193.154	53.55
193.377	-10.75
193.6	60.11
193.822	-28.77
194.045	-40.65
194.268	25.29
194.491	19.56
194.714	24.47
194.936	41.68
195.159	6.86
195.382	69.53
195.605	17.51
195.827	-17.31
196.05	19.97
196.273	26.11
196.495	18.74
196.718	76.9
196.941	-65.64
197.163	13.41
197.386	17.51
197.609	-31.64
197.831	8.91
198.054	125.64
198.277	12.6
198.499	-28.77
198.722	-29.59
198.944	-9.11
199.167	4.81
199.389	-11.98
199.612	-23.86
199.834	71.58
200.057	63.79
200.279	-18.53
200.502	-24.68
200.724	-7.48
200.947	-0.92
201.169	-5.84
201.391	-34.1
201.614	106.39
201.836	51.92
202.059	73.62
202.281	-20.58
202.503	-4.2
202.726	-19.76
202.948	19.97
203.17	-2.97
203.393	-5.43
203.615	-17.31
203.837	-8.29
204.059	20.79
204.282	6.45
204.504	2.76
204.726	-1.74
204.948	-33.69
205.17	22.02
205.393	3.99
205.615	-43.11
205.837	32.67
206.059	16.69
206.281	20.38
206.503	-7.07
206.725	30.21
206.947	-33.69
207.17	36.35
207.392	-32.05
207.614	-21.81
207.836	-0.1
208.058	-17.31
208.28	-16.49
208.502	-0.92
208.724	81
208.946	51.92
209.168	63.38
209.39	67.89
209.611	15.46
209.833	27.34
210.055	32.67
210.277	22.43
210.499	4.81
210.721	26.52
210.943	-9.11
211.165	58.88
211.386	64.61
211.608	-9.93
211.83	-2.97
212.052	21.61
212.274	45.36
212.495	2.36
212.717	12.19
212.939	-9.52
213.161	-12.39
213.382	4.4
213.604	-5.43
213.826	8.09
214.047	83.45
214.269	38.81
214.491	22.02
214.712	71.58
214.934	3.58
215.155	26.93
215.377	50.69
215.599	76.08
215.82	61.34
216.042	-2.97
216.263	-2.56
216.485	38.81
216.706	42.5
216.928	-7.48
217.149	-2.56
217.371	46.59
217.592	21.2
217.814	-2.15
218.035	29.8
218.257	-13.21
218.478	7.68
218.699	49.46
218.921	61.34
219.142	32.26
219.363	-7.07
219.585	-18.12
219.806	-9.52
220.027	-8.7
220.249	44.95
220.47	15.46
220.691	46.18
220.913	35.94
221.134	57.65
221.355	26.11
221.576	5.63
221.798	-66.87
222.019	8.91
222.24	20.79
222.461	35.53
222.682	53.96
222.903	22.83
223.125	21.61
223.346	36.35
223.567	-63.59
223.788	5.22
224.009	-61.13
224.23	109.26
224.451	82.23
224.672	27.34
224.893	-12.8
225.114	17.51
225.335	-59.08
225.556	14.23
225.777	57.65
225.998	55.6
226.219	-18.94
226.44	5.22
226.661	46.18
226.882	41.27
227.103	-17.31
227.324	-72.6
227.544	46.18
227.765	-13.21
227.986	-35.74
228.207	1.54
228.428	34.3
228.649	36.35
228.869	-16.9
229.09	28.16
229.311	59.29
229.532	-7.88
229.752	46.18
229.973	-1.33
230.194	66.25
230.415	10.96
230.635	51.92
230.856	20.79
231.077	44.95
231.297	37.17
231.518	23.65
231.739	-18.12
231.959	3.99
232.18	-29.18
232.4	53.55
232.621	23.24
232.841	-34.1
233.062	-65.64
233.283	-18.53
233.503	44.54
233.724	-5.02
233.944	4.81
234.165	-16.08
234.385	-32.46
234.605	3.58
234.826	-15.26
235.046	3.17
235.267	20.79
235.487	-6.25
235.708	8.09
235.928	-29.59
236.148	25.7
236.369	36.76
236.589	-31.64
236.809	17.92
237.03	11.37
237.25	-8.29
237.47	21.2
237.69	18.33
237.911	3.17
238.131	65.84
238.351	42.09
238.571	45.36
238.792	-0.92
239.012	-17.71
239.232	-47.62
239.452	-4.2
239.672	3.58
239.892	-23.04
240.112	-32.46
240.333	-48.02
240.553	15.87
240.773	53.14
240.993	-3.79
241.213	13.41
241.433	-18.94
241.653	-3.38
241.873	8.5
242.093	-52.53
242.313	-22.63
242.533	48.23
242.753	44.54
242.973	85.91
243.193	2.76
243.413	12.19
243.633	-12.39
243.853	-7.07
244.072	38.4
244.292	12.6
244.512	-28.36
244.732	56.01
244.952	-13.21
245.172	71.58
245.391	31.85
245.611	21.2
245.831	-11.98
246.051	65.84
246.271	60.11
246.49	-32.05
246.71	15.87
246.93	-2.97
247.149	-1.74
247.369	21.2
247.589	38.4
247.808	40.86
248.028	-2.56
248.248	58.06
248.467	9.32
248.687	17.51
248.906	-15.26
249.126	-1.74
249.346	7.68
249.565	-48.43
249.785	13
250.004	22.43
250.224	-5.84
250.443	-10.34
250.663	15.05
250.882	88.37
251.102	-15.67
251.321	81.82
251.541	24.88
251.76	9.32
251.979	15.87
252.199	62.98
252.418	-22.22
252.638	-23.45
252.857	33.07
253.076	29.8
253.296	-33.69
253.515	4.81
253.734	-9.11
253.953	12.19
254.173	-10.34
254.392	26.93
254.611	46.18
254.83	0.31
255.05	10.96
255.269	27.75
255.488	-23.45
255.707	37.17
255.926	10.55
256.146	17.1
256.365	57.24
256.584	-10.75
256.803	-5.02
257.022	25.29
257.241	20.38
257.46	-42.29
257.679	22.83
257.898	-1.74
258.117	4.81
258.336	66.25
258.555	-20.58
258.774	-29.18
258.993	64.61
259.212	10.96
259.431	-50.89
259.65	15.87
259.869	31.85
260.088	36.76
260.307	-11.98
260.526	-20.17
260.745	18.33
260.964	121.14
261.182	-25.5
261.401	-1.33
261.62	51.1
261.839	34.71
262.058	22.43
262.276	-48.43
262.495	40.45
262.714	18.33
262.933	-15.67
263.151	-29.18
263.37	37.99
263.589	99.84
263.807	-6.25
264.026	-5.84
264.245	-9.93
264.463	9.73
264.682	2.36
264.901	23.24
265.119	6.04
265.338	4.81
265.556	-6.66
265.775	15.46
265.994	22.02
266.212	24.88
266.431	26.11
266.649	-9.93
266.868	31.44
267.086	-35.33
267.305	-34.1
267.523	37.99
267.742	89.6
267.96	-11.16
268.178	42.09
268.397	39.63
268.615	-31.64
268.834	68.71
269.052	-36.56
269.27	-1.74
269.489	-77.52
269.707	50.69
269.925	44.13
270.143	37.17
270.362	-0.1
270.58	74.44
270.798	-16.08
271.017	71.17
271.235	44.54
271.453	-25.09
271.671	31.44
271.889	2.76
272.108	-9.93
272.326	-47.21
272.544	-7.48
272.762	51.92
272.98	-17.71
273.198	35.53
273.416	3.58
273.634	45.77
273.852	16.69
274.07	38.4
274.289	-27.95
274.507	-14.85
274.725	15.05
274.943	83.05
275.161	42.09
275.379	37.99
275.596	-3.79
275.814	-39.01
276.032	16.28
276.25	14.23
276.468	44.95
276.686	8.5
276.904	-9.93
277.122	-15.26
277.34	48.23
277.557	60.52
277.775	-30
277.993	34.3
278.211	90.42
278.429	56.42
278.646	-25.09
278.864	39.22
279.082	-19.35
279.3	37.58
279.517	30.21
279.735	8.09
279.953	17.92
280.17	-21.81
280.388	11.78
280.606	-45.57
280.823	87.55
281.041	39.63
281.259	-57.45
281.476	52.33
281.694	29.39
281.911	-5.84
282.129	7.27
282.346	-32.46
282.564	-18.53
282.781	-25.09
282.999	-18.94
283.216	32.67
283.434	18.74
283.651	34.3
283.869	-18.94
284.086	-32.87
284.304	71.58
284.521	16.28
284.738	-20.99
284.956	29.39
285.173	-65.64
285.391	8.91
285.608	36.76
285.825	8.5
286.043	38.4
286.26	20.79
286.477	5.63
286.694	26.52
286.912	42.09
287.129	27.75
287.346	-9.11
287.563	-0.92
287.78	-11.57
287.998	3.99
288.215	-29.59
288.432	-11.16
288.649	2.76
288.866	62.57
289.083	17.1
289.3	54.37
289.518	33.48
289.735	-45.16
289.952	17.51
290.169	25.29
290.386	24.06
290.603	-16.49
290.82	44.54
291.037	-23.86
291.254	2.36
291.471	47.41
291.688	-5.43
291.905	-17.71
292.122	-0.92
292.339	-39.42
292.555	1.13
292.772	-16.9
292.989	32.26
293.206	17.1
293.423	-17.31
293.64	53.96
293.857	39.22
294.073	79.77
294.29	158
294.507	3.58
294.724	70.76
294.94	-11.16
295.157	-41.88
295.374	35.94
295.591	-0.92
295.807	77.72
296.024	-16.9
296.241	29.39
296.457	33.48
296.674	8.91
296.891	-5.43
297.107	-9.11
297.324	30.62
297.54	26.93
297.757	-45.16
297.973	22.83
298.19	42.5
298.407	-35.33
298.623	-36.56
298.84	55.6
299.056	-3.79
299.272	17.1
299.489	0.31
299.705	4.81
299.922	-9.93
300.138	62.98
300.355	-52.53
300.571	59.29
300.787	-3.38
301.004	15.05
301.22	26.52
301.436	5.63
301.653	46.59
301.869	-10.34
302.085	21.2
302.302	-23.86
302.518	59.29
302.734	16.28
302.95	9.32
303.167	22.43
303.383	33.48
303.599	64.2
303.815	30.21
304.031	1.54
304.248	21.2
304.464	4.81
304.68	38.81
304.896	6.45
305.112	42.09
305.328	44.95
305.544	3.58
305.76	-43.52
305.976	-11.16
306.192	3.58
306.408	23.65
306.624	-20.17
306.84	24.88
307.056	14.23
307.272	65.84
307.488	60.11
307.704	13.82
307.92	39.63
308.136	30.62
308.352	79.77
308.568	57.24
308.784	-22.63
309	58.06
309.215	20.79
309.431	35.94
309.647	15.87
309.863	34.3
310.079	0.72
310.294	-0.92
310.51	-5.02
310.726	-31.23
310.942	92.88
311.157	28.16
311.373	83.86
311.589	-7.88
311.804	4.81
312.02	53.55
312.236	-4.61
312.451	21.2
312.667	69.12
312.883	-10.34
313.098	17.1
313.314	13
313.529	49.46
313.745	63.79
313.961	15.46
314.176	26.93
314.392	6.45
314.607	-23.04
314.823	83.86
315.038	-24.68
315.253	24.06
315.469	-20.99
315.684	36.76
315.9	-41.06
316.115	-23.86
316.331	116.63
316.546	62.16
316.761	-27.55
316.977	92.88
317.192	39.63
317.407	69.12
317.623	-70.96
317.838	27.34
318.053	-12.39
318.268	41.27
318.484	-25.91
318.699	-2.15
318.914	27.75
319.129	-0.51
319.344	44.54
319.56	58.88
319.775	56.01
319.99	78.54
320.205	-2.15
320.42	75.67
320.635	17.92
320.85	73.62
321.066	-5.02
321.281	5.22
321.496	33.48
321.711	-9.52
321.926	4.81
322.141	10.96
322.356	19.97
322.571	1.13
322.786	-31.23
323.001	0.31
323.216	5.22
323.43	33.48
323.645	40.04
323.86	64.2
324.075	-6.25
324.29	-6.25
324.505	64.2
324.72	-20.58
324.935	34.3
325.149	19.97
325.364	22.43
325.579	4.81
325.794	-30.41
326.009	22.83
326.223	24.06
326.438	-35.33
326.653	26.11
326.867	67.07
327.082	61.75
327.297	-4.2
327.511	55.6
327.726	-26.73
327.941	42.9
328.155	-33.28
328.37	-12.39
328.585	1.13
328.799	31.03
329.014	27.75
329.228	-1.33
329.443	-64
329.657	36.76
329.872	-19.35
330.086	-13.21
330.301	87.96
330.515	8.09
330.73	48.23
330.944	17.92
331.159	4.4
331.373	22.43
331.587	8.91
331.802	-1.74
332.016	53.55
332.231	-22.63
332.445	66.66
332.659	80.18
332.874	60.52
333.088	73.62
333.302	30.62
333.516	-2.56
333.731	36.35
333.945	17.51
334.159	51.92
334.373	49.46
334.588	15.87
334.802	15.05
335.016	41.68
335.23	14.64
335.444	-5.43
335.658	-19.76
335.872	46.59
336.087	46.59
336.301	78.13
336.515	-23.86
336.729	43.72
336.943	16.28
337.157	81.82
337.371	-42.7
337.585	8.09
337.799	56.42
338.013	65.43
338.227	-42.29
338.441	63.79
338.655	74.03
338.869	69.53
339.083	11.78
339.296	-9.52
339.51	3.58
339.724	39.22
339.938	31.85
340.152	7.68
340.366	28.16
340.58	82.23
340.793	-6.66
341.007	36.76
341.221	6.86
341.435	78.54
341.648	62.16
341.862	57.65
342.076	18.74
342.29	71.58
342.503	50.28
342.717	54.37
342.931	53.14
343.144	15.87
343.358	10.55
343.571	56.42
343.785	36.76
343.999	113.36
344.212	76.9
344.426	43.31
344.639	2.36
344.853	103.52
345.066	-2.56
345.28	40.86
345.493	38.4
345.707	-8.29
345.92	24.06
346.134	42.09
346.347	40.45
346.561	38.81
346.774	48.64
346.987	75.26
347.201	15.87
347.414	25.29
347.627	-7.48
347.841	68.3
348.054	47.41
348.267	117.45
348.481	44.95
348.694	24.47
348.907	18.33
349.12	40.45
349.334	44.13
349.547	-7.48
349.76	22.43
349.973	22.43
350.186	50.69
350.4	34.71
350.613	81.82
350.826	59.7
351.039	38.4
351.252	101.07
351.465	65.02
351.678	-0.1
351.891	17.51
352.104	22.02
352.317	78.13
352.53	56.01
352.743	4.4
352.956	47.41
353.169	67.07
353.382	85.5
353.595	8.5
353.808	-14.85
354.021	69.12
354.234	107.21
354.447	-21.81
354.66	104.75
354.873	39.63
355.086	120.73
355.298	46.59
355.511	21.61
355.724	59.7
355.937	145.71
356.15	90.83
356.362	84.68
356.575	72.4
356.788	76.08
357.001	45.77
357.213	61.75
357.426	86.73
357.639	82.64
357.851	89.19
358.064	80.59
358.277	71.17
358.489	54.37
358.702	50.28
358.914	49.05
359.127	26.11
359.34	56.42
359.552	49.05
359.765	45.36
359.977	127.28
360.19	89.6
360.402	84.27
360.615	75.67
360.827	16.28
361.04	129.33
361.252	56.42
361.465	68.3
361.677	60.52
361.889	90.42
362.102	45.36
362.314	101.07
362.526	97.38
362.739	231.73
362.951	835.06
363.163	1886.49
363.376	2577.47
363.588	2917.43
363.8	2858.86
364.012	2025.75
364.225	1212.7
364.437	1080.41
364.649	871.51
364.861	769.11
365.074	613.47
365.286	422.19
365.498	221.08
365.71	110.08
365.922	94.1
366.134	103.12
366.346	59.29
366.558	121.14
366.77	74.03
366.983	87.55
367.195	34.3
367.407	83.45
367.619	138.75
367.831	128.1
368.043	30.21
368.255	119.91
368.467	110.9
368.678	93.28
368.89	-16.08
369.102	115.81
369.314	141.21
369.526	85.09
369.738	42.9
369.95	38.4
370.162	113.36
370.373	89.19
370.585	64.61
370.797	83.05
371.009	58.47
371.221	41.27
371.432	61.34
371.644	81.82
371.856	110.9
372.068	109.67
372.279	85.91
372.491	90.83
372.703	56.83
372.914	66.66
373.126	45.36
373.338	15.87
373.549	81.41
373.761	77.31
373.972	44.13
374.184	97.38
374.395	99.43
374.607	100.66
374.819	34.3
375.03	70.35
375.242	105.98
375.453	82.23
375.664	83.45
375.876	99.84
376.087	84.27
376.299	140.8
376.51	67.48
376.722	66.66
376.933	111.72
377.144	156.36
377.356	72.81
377.567	112.13
377.778	141.62
377.99	111.72
378.201	194.45
378.412	166.6
378.624	81
378.835	105.57
379.046	105.98
379.257	119.09
379.468	141.21
379.68	36.76
379.891	71.99
380.102	126.05
380.313	64.2
380.524	126.87
380.735	65.43
380.946	112.54
381.158	72.81
381.369	62.16
381.58	110.49
381.791	38.4
382.002	39.22
382.213	92.47
382.424	56.83
382.635	124.41
382.846	88.37
383.057	82.64
383.268	62.98
383.479	46.59
383.69	60.93
383.9	116.22
384.111	90.01
384.322	39.22
384.533	49.05
384.744	81.82
384.955	91.65
385.166	85.5
385.376	24.06
385.587	128.1
385.798	87.96
386.009	-2.15
386.22	17.92
386.43	102.71
386.641	94.51
386.852	34.71
387.062	77.72
387.273	71.58
387.484	28.16
387.694	31.03
387.905	32.26
388.116	56.01
388.326	61.34
388.537	84.68
388.747	133.83
388.958	153.9
389.168	68.3
389.379	46.18
389.59	29.8
389.8	-14.03
390.011	59.7
390.221	83.45
390.431	83.86
390.642	97.79
390.852	100.66
391.063	23.24
391.273	61.75
391.484	72.81
391.694	37.58
391.904	45.36
392.115	44.54
392.325	36.35
392.535	82.23
392.746	62.57
392.956	81.41
393.166	11.78
393.376	55.19
393.587	137.11
393.797	112.54
394.007	139.57
394.217	76.9
394.427	64.61
394.638	66.25
394.848	111.31
395.058	152.27
395.268	33.48
395.478	78.95
395.688	19.97
395.898	56.83
396.108	115.81
396.318	3.17
396.528	69.94
396.738	68.71
396.948	120.32
397.158	34.71
397.368	104.34
397.578	-22.63
397.788	75.67
397.998	-35.74
398.208	86.32
398.418	-61.13
398.628	24.88
398.838	34.3
399.048	67.07
399.258	73.62
399.467	111.72
399.677	47
399.887	1.13
400.097	22.83
400.307	73.62
400.516	35.94
400.726	49.46
400.936	77.72
401.146	28.98
401.355	65.43
401.565	84.68
401.775	92.06
401.984	93.28
402.194	226.81
402.404	1128.33
402.613	4727.02
402.823	8950.75
403.032	11317.38
403.242	11735.17
403.452	9581.93
403.661	4209.7
403.871	1245.88
404.08	617.56
404.29	372.63
404.499	170.29
404.709	76.9
404.918	126.05
405.128	90.83
405.337	101.48
405.546	184.62
405.756	620.02
405.965	1038.63
406.175	1285.2
406.384	1339.68
406.593	1080
406.803	364.44
407.012	169.06
407.221	62.98
407.43	74.44
407.64	101.07
407.849	24.88
408.058	58.06
408.267	17.92
408.477	29.39
408.686	60.11
408.895	19.97
409.104	71.58
409.313	26.52
409.522	37.99
409.732	40.45
409.941	137.93
410.15	94.92
410.359	101.89
410.568	65.84
410.777	117.04
410.986	76.9
411.195	51.51
411.404	87.96
411.613	61.75
411.822	110.49
412.031	74.85
412.24	69.94
412.449	49.05
412.658	81.41
412.867	103.12
413.075	98.2
413.284	81
413.493	96.56
413.702	97.38
413.911	83.86
414.12	60.93
414.328	99.43
414.537	102.71
414.746	84.27
414.955	82.23
415.164	41.27
415.372	123.19
415.581	166.19
415.79	75.26
415.998	97.38
416.207	121.96
416.416	120.73
416.624	77.31
416.833	104.34
417.042	96.97
417.25	92.88
417.459	24.47
417.667	76.49
417.876	92.47
418.084	37.99
418.293	3.58
418.501	27.75
418.71	33.48
418.918	64.61
419.127	55.19
419.335	38.4
419.544	16.69
419.752	33.89
419.96	139.16
420.169	14.64
420.377	56.42
420.586	81.82
420.794	56.01
421.002	48.23
421.211	70.35
421.419	-3.38
421.627	11.78
421.835	69.12
422.044	23.65
422.252	24.88
422.46	51.51
422.668	29.39
422.877	36.35
423.085	71.58
423.293	86.73
423.501	39.22
423.709	22.02
423.917	35.53
424.125	4.81
424.333	-24.27
424.542	31.44
424.75	59.7
424.958	22.83
425.166	45.36
425.374	145.71
425.582	148.58
425.79	13.41
425.998	-20.58
426.206	57.24
426.414	60.52
426.621	12.6
426.829	12.6
427.037	54.78
427.245	74.03
427.453	73.21
427.661	35.94
427.869	133.02
428.077	74.44
428.284	26.93
428.492	85.09
428.7	61.75
428.908	-6.66
429.115	113.36
429.323	33.07
429.531	44.95
429.739	127.28
429.946	125.64
430.154	61.34
430.362	69.94
430.569	57.65
430.777	100.66
430.985	28.57
431.192	59.7
431.4	150.63
431.607	94.51
431.815	242.79
432.022	244.43
432.23	275.55
432.437	315.69
432.645	397.2
432.852	543.43
433.06	716.69
433.267	969
433.475	2052.37
433.682	8784.05
433.89	24762.71
434.097	34057.21
434.304	39881.63
434.512	38258.82
434.719	24134.39
434.926	7536.83
435.134	2717.55
435.341	1466.65
435.548	837.93
435.756	533.19
435.963	306.68
436.17	249.75
436.377	255.48
436.585	182.58
436.792	156.77
436.999	137.11
437.206	132.61
437.413	181.35
437.621	81
437.828	128.92
438.035	55.19
438.242	102.71
438.449	85.09
438.656	94.51
438.863	147.35
439.07	56.01
439.277	89.6
439.484	60.93
439.691	36.35
439.898	115.81
440.105	42.5
440.312	14.64
440.519	13.41
440.726	101.89
440.933	-12.8
441.14	76.08
441.347	41.68
441.553	68.71
441.76	79.77
441.967	96.15
442.174	56.42
442.381	17.92
442.587	-16.9
442.794	71.17
443.001	13
443.208	7.68
443.414	58.88
443.621	76.08
443.828	68.3
444.035	78.54
444.241	-7.88
444.448	88.78
444.654	52.33
444.861	90.01
445.068	112.54
445.274	23.65
445.481	70.35
445.687	55.6
445.894	1.54
446.101	29.39
446.307	83.45
446.514	22.02
446.72	75.67
446.926	17.92
447.133	17.51
447.339	39.63
447.546	67.48
447.752	48.64
447.959	-24.27
448.165	33.89
448.371	55.19
448.578	75.67
448.784	38.4
448.99	103.52
449.197	-6.25
449.403	59.7
449.609	3.58
449.816	98.61
450.022	19.15
450.228	75.26
450.434	105.98
450.64	22.43
450.847	24.88
451.053	69.94
451.259	40.04
451.465	56.83
451.671	151.45
451.877	112.54
452.083	51.51
452.289	29.8
452.496	-1.33
