Data from FLMT000111__7__14-12-25-191.txt Node

Date: Thu Oct 26 14:12:25 EDT 2023
User: Student
Spectrometer: FLMT00011
Trigger mode: 0
Integration Time (sec): 1.000000E-1
Scans to average: 5
Electric dark correction enabled: true
Nonlinearity correction enabled: false
Boxcar width: 0
XAxis mode: Wavelengths
Number of Pixels in Spectrum: 3648
>>>>>Begin Spectral Data<<<<<
171.25	-186.23
171.475	-186.23
171.699	-186.23
171.923	-228.42
172.147	23.07
172.371	113.18
172.595	14.47
172.819	4.23
173.043	-13.79
173.267	-11.74
173.491	34.95
173.715	9.97
173.939	-43.28
174.163	-15.84
174.387	-51.88
174.611	-23.21
174.835	-17.07
175.059	-7.65
175.283	14.47
175.507	-31.81
175.73	8.33
175.954	5.46
176.178	-59.66
176.402	-34.68
176.626	5.87
176.85	-73.59
177.073	-49.83
177.297	26.35
177.521	-10.51
177.745	-7.65
177.969	18.57
178.192	38.23
178.416	-22.8
178.64	-19.93
178.863	7.51
179.087	-24.03
179.311	35.36
179.534	0.14
179.758	-38.37
179.982	83.28
180.205	25.12
180.429	13.65
180.653	-29.35
180.876	-24.85
181.1	-37.14
181.323	-21.16
181.547	33.72
181.77	40.69
181.994	-0.68
182.217	12.01
182.441	50.52
182.664	8.33
182.888	65.67
183.111	27.17
183.335	-25.26
183.558	5.46
183.782	57.48
184.005	-17.07
184.228	-27.72
184.452	29.22
184.675	-20.34
184.899	5.87
185.122	25.53
185.345	-38.37
185.569	-56.39
185.792	6.28
186.015	-40.41
186.238	-10.1
186.462	45.19
186.685	138.99
186.908	7.1
187.131	9.15
187.355	-26.49
187.578	3
187.801	-3.14
188.024	-4.78
188.247	-1.91
188.471	-32.63
188.694	40.69
188.917	49.7
189.14	-37.55
189.363	55.02
189.586	-3.55
189.809	58.71
190.032	50.11
190.255	-13.38
190.478	-13.38
190.701	-23.62
190.924	51.75
191.147	-17.89
191.37	-2.32
191.593	68.54
191.816	30.04
192.039	32.49
192.262	4.64
192.485	-24.03
192.708	36.59
192.931	18.98
193.154	35.77
193.377	-16.66
193.6	19.8
193.822	-19.11
194.045	-11.74
194.268	8.33
194.491	56.25
194.714	23.07
194.936	15.29
195.159	-10.1
195.382	61.17
195.605	-9.28
195.827	6.69
196.05	57.48
196.273	7.1
196.495	27.99
196.718	55.02
196.941	-27.72
197.163	30.86
197.386	43.96
197.609	-81.37
197.831	-20.34
198.054	127.52
198.277	29.22
198.499	-15.84
198.722	-37.14
198.944	-1.91
199.167	-24.03
199.389	-1.09
199.612	-6.42
199.834	65.67
200.057	63.62
200.279	-40
200.502	-5.19
200.724	-42.46
200.947	19.8
201.169	-15.02
201.391	-46.97
201.614	85.74
201.836	39.46
202.059	40.28
202.281	48.47
202.503	-21.98
202.726	-9.69
202.948	43.96
203.17	-22.39
203.393	-17.89
203.615	7.1
203.837	-49.42
204.059	17.75
204.282	-17.48
204.504	9.15
204.726	-3.14
204.948	-57.62
205.17	30.04
205.393	-26.08
205.615	-53.93
205.837	36.59
206.059	0.55
206.281	59.94
206.503	8.33
206.725	-7.24
206.947	-17.89
207.17	46.01
207.392	-5.19
207.614	-19.93
207.836	-12.15
208.058	2.59
208.28	-11.74
208.502	17.75
208.724	31.68
208.946	48.47
209.168	52.15
209.39	52.56
209.611	43.55
209.833	28.4
210.055	72.23
210.277	5.46
210.499	-14.61
210.721	4.64
210.943	-24.44
211.165	52.97
211.386	55.84
211.608	23.89
211.83	-26.49
212.052	-16.66
212.274	42.73
212.495	38.64
212.717	-64.99
212.939	-34.27
213.161	3
213.382	15.7
213.604	26.35
213.826	43.55
214.047	51.34
214.269	36.18
214.491	18.57
214.712	69.36
214.934	-1.91
215.155	57.48
215.377	54.2
215.599	72.23
215.82	92.7
216.042	11.61
216.263	9.97
216.485	34.95
216.706	92.3
216.928	-33.45
217.149	8.74
217.371	22.25
217.592	27.58
217.814	1.37
218.035	46.83
218.257	16.52
218.478	14.47
218.699	24.71
218.921	50.11
219.142	35.77
219.363	7.51
219.585	31.68
219.806	-0.68
220.027	-12.15
220.249	21.44
220.47	34.54
220.691	19.39
220.913	55.43
221.134	63.62
221.355	8.33
221.576	-8.87
221.798	-50.24
222.019	4.64
222.24	0.14
222.461	26.35
222.682	63.62
222.903	-19.93
223.125	91.07
223.346	32.49
223.567	-56.8
223.788	-56.8
224.009	-37.96
224.23	103.76
224.451	64.03
224.672	19.8
224.893	15.29
225.114	-25.26
225.335	-58.44
225.556	14.06
225.777	60.76
225.998	46.83
226.219	-1.5
226.44	-12.97
226.661	47.24
226.882	59.12
227.103	-11.74
227.324	-35.09
227.544	34.95
227.765	14.88
227.986	-48.61
228.207	26.76
228.428	31.68
228.649	-6.42
228.869	1.37
229.09	46.42
229.311	59.12
229.532	-3.14
229.752	12.01
229.973	-6.83
230.194	56.66
230.415	0.14
230.635	48.06
230.856	19.8
231.077	72.63
231.297	34.95
231.518	27.99
231.739	-35.5
231.959	-3.96
232.18	18.16
232.4	50.11
232.621	-12.97
232.841	-5.6
233.062	-81.37
233.283	16.52
233.503	41.1
233.724	38.23
233.944	-18.3
234.165	-7.65
234.385	-20.34
234.605	30.86
234.826	-24.44
235.046	17.75
235.267	10.79
235.487	-4.37
235.708	26.76
235.928	-67.86
236.148	43.96
236.369	37.41
236.589	-16.66
236.809	0.14
237.03	33.31
237.25	3.41
237.47	46.42
237.69	-21.57
237.911	-20.34
238.131	28.4
238.351	42.32
238.571	13.65
238.792	41.1
239.012	-27.72
239.232	-21.16
239.452	20.21
239.672	32.08
239.892	-56.39
240.112	-2.32
240.333	-20.34
240.553	-8.46
240.773	59.53
240.993	-32.22
241.213	-28.13
241.433	8.33
241.653	-7.24
241.873	3.82
242.093	-12.15
242.313	0.96
242.533	31.68
242.753	38.23
242.973	34.13
243.193	-27.31
243.413	-8.87
243.633	31.27
243.853	-29.35
244.072	41.92
244.292	-8.06
244.512	-27.31
244.732	10.38
244.952	14.06
245.172	16.11
245.391	-4.78
245.611	22.25
245.831	0.14
246.051	30.04
246.271	23.07
246.49	-30.99
246.71	27.58
246.93	-13.38
247.149	34.95
247.369	-12.56
247.589	-0.68
247.808	32.08
248.028	-19.11
248.248	3.41
248.467	5.05
248.687	28.81
248.906	27.58
249.126	-2.73
249.346	-46.56
249.565	-31.81
249.785	-6.83
250.004	29.22
250.224	-28.54
250.443	3.82
250.663	18.16
250.882	111.55
251.102	-29.76
251.321	46.42
251.541	-12.56
251.76	28.81
251.979	12.42
252.199	76.73
252.418	-6.42
252.638	18.98
252.857	13.65
253.076	19.39
253.296	16.93
253.515	13.24
253.734	-3.14
253.953	17.34
254.173	-4.37
254.392	-29.35
254.611	34.95
254.83	4.23
255.05	-14.2
255.269	-5.19
255.488	28.81
255.707	51.34
255.926	17.75
256.146	26.35
256.365	45.19
256.584	-17.07
256.803	-45.74
257.022	20.21
257.241	21.03
257.46	-64.17
257.679	42.32
257.898	8.33
258.117	11.61
258.336	46.01
258.555	13.24
258.774	-34.27
258.993	47.65
259.212	19.39
259.431	-55.57
259.65	-3.96
259.869	46.01
260.088	44.78
260.307	9.56
260.526	-11.74
260.745	43.14
260.964	140.63
261.182	-30.99
261.401	20.62
261.62	85.74
261.839	35.36
262.058	64.03
262.276	-72.77
262.495	55.43
262.714	63.21
262.933	23.07
263.151	-21.98
263.37	-8.46
263.589	65.26
263.807	0.55
264.026	-9.69
264.245	3.82
264.463	-27.31
264.682	7.51
264.901	57.48
265.119	-12.15
265.338	50.11
265.556	20.21
265.775	15.29
265.994	15.7
266.212	23.07
266.431	-5.19
266.649	-33.04
266.868	18.57
267.086	-22.8
267.305	1.77
267.523	40.69
267.742	75.09
267.96	-23.62
268.178	28.81
268.397	31.27
268.615	-31.81
268.834	77.14
269.052	-52.7
269.27	-6.83
269.489	-81.37
269.707	58.3
269.925	9.97
270.143	59.53
270.362	26.35
270.58	90.25
270.798	10.38
271.017	27.17
271.235	39.87
271.453	0.14
271.671	-3.14
271.889	23.07
272.108	-9.69
272.326	16.11
272.544	-7.24
272.762	111.14
272.98	0.14
273.198	-32.63
273.416	-24.03
273.634	24.3
273.852	49.29
274.07	22.25
274.289	5.05
274.507	-12.15
274.725	45.19
274.943	52.15
275.161	23.48
275.379	21.85
275.596	-25.67
275.814	-52.7
276.032	11.61
276.25	19.8
276.468	56.25
276.686	-7.24
276.904	30.86
277.122	12.42
277.34	79.19
277.557	49.29
277.775	-42.46
277.993	-6.01
278.211	79.19
278.429	71.41
278.646	-8.46
278.864	43.55
279.082	23.89
279.3	20.21
279.517	74.27
279.735	9.97
279.953	18.98
280.17	0.96
280.388	14.47
280.606	-64.99
280.823	98.44
281.041	49.29
281.259	-47.79
281.476	35.77
281.694	10.79
281.911	16.52
282.129	6.69
282.346	23.89
282.564	10.38
282.781	-15.84
282.999	-12.97
283.216	15.29
283.434	42.32
283.651	-11.33
283.869	-9.28
284.086	-22.39
284.304	19.8
284.521	21.85
284.738	-3.14
284.956	17.34
285.173	-28.54
285.391	-15.43
285.608	-12.56
285.825	-5.6
286.043	-8.46
286.26	2.59
286.477	-4.37
286.694	22.25
286.912	45.19
287.129	77.55
287.346	-14.61
287.563	-3.96
287.78	-3.55
287.998	16.11
288.215	33.31
288.432	3.82
288.649	3
288.866	66.9
289.083	13.65
289.3	32.49
289.518	74.68
289.735	11.2
289.952	-19.52
290.169	48.06
290.386	3.41
290.603	16.11
290.82	74.68
291.037	-17.07
291.254	17.34
291.471	16.52
291.688	-36.32
291.905	-24.03
292.122	-40.41
292.339	-30.58
292.555	21.03
292.772	9.97
292.989	-7.24
293.206	49.7
293.423	25.94
293.64	31.68
293.857	77.55
294.073	93.93
294.29	132.84
294.507	6.28
294.724	7.51
294.94	-33.45
295.157	-40
295.374	-2.32
295.591	-29.35
295.807	50.52
296.024	43.55
296.241	39.05
296.457	42.73
296.674	-35.09
296.891	-8.06
297.107	-9.28
297.324	-22.39
297.54	19.8
297.757	-19.52
297.973	4.64
298.19	88.61
298.407	0.14
298.623	-24.85
298.84	66.08
299.056	11.61
299.272	22.66
299.489	-13.79
299.705	-18.3
299.922	-11.33
300.138	72.63
300.355	9.56
300.571	64.85
300.787	-28.94
301.004	83.69
301.22	68.13
301.436	36.59
301.653	64.03
301.869	25.53
302.085	14.06
302.302	3.82
302.518	30.45
302.734	3.82
302.95	-58.44
303.167	-4.37
303.383	50.52
303.599	40.28
303.815	71
304.031	42.32
304.248	27.17
304.464	-18.7
304.68	6.69
304.896	45.19
305.112	-16.66
305.328	24.3
305.544	8.74
305.76	-26.08
305.976	29.22
306.192	7.1
306.408	-15.84
306.624	-7.65
306.84	31.27
307.056	-40
307.272	107.04
307.488	44.37
307.704	22.66
307.92	53.38
308.136	56.25
308.352	103.35
308.568	21.03
308.784	13.65
309	39.05
309.215	-16.25
309.431	17.34
309.647	-3.55
309.863	72.23
310.079	-11.33
310.294	25.53
310.51	-49.83
310.726	-55.98
310.942	66.08
311.157	36.18
311.373	69.36
311.589	-62.12
311.804	-18.7
312.02	46.42
312.236	0.55
312.451	23.89
312.667	81.24
312.883	-4.78
313.098	26.35
313.314	22.25
313.529	38.23
313.745	47.65
313.961	27.17
314.176	48.47
314.392	40.69
314.607	-1.09
314.823	89.84
315.038	-35.09
315.253	8.74
315.469	-23.62
315.684	48.47
315.9	-55.16
316.115	32.49
316.331	41.1
316.546	50.52
316.761	-27.31
316.977	64.03
317.192	30.04
317.407	79.6
317.623	-33.45
317.838	52.15
318.053	-4.37
318.268	67.31
318.484	-29.76
318.699	-12.56
318.914	33.72
319.129	21.44
319.344	40.28
319.56	71.41
319.775	25.53
319.99	17.75
320.205	49.29
320.42	60.35
320.635	53.79
320.85	75.5
321.066	26.76
321.281	-11.74
321.496	21.85
321.711	22.66
321.926	25.94
322.141	11.61
322.356	66.9
322.571	-13.38
322.786	18.16
323.001	26.76
323.216	30.86
323.43	12.01
323.645	43.96
323.86	93.52
324.075	13.24
324.29	18.57
324.505	48.88
324.72	-34.27
324.935	7.92
325.149	38.64
325.364	38.23
325.579	-10.92
325.794	6.28
326.009	25.94
326.223	-26.08
326.438	-31.4
326.653	71.82
326.867	46.83
327.082	51.34
327.297	-14.2
327.511	63.62
327.726	5.46
327.941	12.01
328.155	-60.48
328.37	19.39
328.585	22.25
328.799	9.97
329.014	35.77
329.228	4.23
329.443	-24.85
329.657	3.82
329.872	-8.06
330.086	-19.52
330.301	58.71
330.515	24.71
330.73	29.22
330.944	23.89
331.159	5.46
331.373	-1.09
331.587	25.12
331.802	20.21
332.016	21.84
332.231	-3.14
332.445	42.32
332.659	76.73
332.874	46.01
333.088	59.53
333.302	76.32
333.516	11.2
333.731	51.34
333.945	-6.83
334.159	32.9
334.373	2.18
334.588	-33.04
334.802	23.07
335.016	61.99
335.23	56.25
335.444	-16.25
335.658	-24.44
335.872	46.01
336.087	25.94
336.301	76.32
336.515	27.58
336.729	71.82
336.943	13.24
337.157	75.09
337.371	-24.85
337.585	-20.75
337.799	56.25
338.013	7.51
338.227	-35.91
338.441	79.19
338.655	73.04
338.869	25.53
339.083	-37.96
339.296	-35.5
339.51	-1.91
339.724	51.34
339.938	48.88
340.152	-25.67
340.366	-8.06
340.58	90.25
340.793	5.87
341.007	29.22
341.221	8.33
341.435	81.65
341.648	7.92
341.862	34.95
342.076	-10.1
342.29	80.42
342.503	16.11
342.717	34.54
342.931	-7.24
343.144	-27.31
343.358	-7.65
343.571	25.94
343.785	16.11
343.999	118.1
344.212	52.56
344.426	32.49
344.639	43.14
344.853	50.52
345.066	-15.43
345.28	18.98
345.493	19.8
345.707	-12.97
345.92	-55.16
346.134	32.08
346.347	-20.75
346.561	-41.64
346.774	93.93
346.987	56.66
347.201	25.12
347.414	-28.54
347.627	-46.15
347.841	-1.91
348.054	-31.81
348.267	59.94
348.481	28.4
348.694	-8.06
348.907	33.72
349.12	90.66
349.334	-12.97
349.547	-21.16
349.76	28.81
349.973	52.56
350.186	-3.14
350.4	60.35
350.613	46.01
350.826	-1.91
351.039	11.61
351.252	47.65
351.465	42.73
351.678	-12.15
351.891	5.87
352.104	8.33
352.317	22.25
352.53	28.4
352.743	13.65
352.956	35.36
353.169	30.86
353.382	75.09
353.595	-19.11
353.808	-31.4
354.021	43.14
354.234	61.99
354.447	-8.87
354.66	39.87
354.873	7.1
355.086	106.63
355.298	-8.46
355.511	50.11
355.724	-3.96
355.937	98.85
356.15	81.24
356.362	15.29
356.575	-15.84
356.788	71.82
357.001	17.75
357.213	-6.42
357.426	46.83
357.639	46.42
357.851	42.32
358.064	53.79
358.277	49.29
358.489	17.75
358.702	6.28
358.914	3.82
359.127	37
359.34	75.91
359.552	53.79
359.765	-8.46
359.977	93.93
360.19	15.7
360.402	35.77
360.615	55.43
360.827	55.43
361.04	72.23
361.252	7.1
361.465	15.7
361.677	45.6
361.889	41.1
362.102	17.34
362.314	-0.27
362.526	85.33
362.739	55.84
362.951	52.56
363.163	33.31
363.376	7.1
363.588	-0.68
363.8	50.93
364.012	17.75
364.225	-2.73
364.437	61.58
364.649	91.48
364.861	46.01
365.074	9.56
365.286	62.8
365.498	37
365.71	0.96
365.922	25.12
366.134	50.11
366.346	15.7
366.558	34.54
366.77	23.48
366.983	89.02
367.195	-36.32
367.407	75.91
367.619	91.07
367.831	46.01
368.043	27.99
368.255	67.72
368.467	55.84
368.678	32.49
368.89	-53.11
369.102	67.72
369.314	18.57
369.526	64.03
369.738	36.18
369.95	30.04
370.162	42.32
370.373	46.83
370.585	34.13
370.797	66.08
371.009	41.51
371.221	24.71
371.432	9.97
371.644	42.73
371.856	37.82
372.068	61.17
372.279	-12.15
372.491	55.02
372.703	50.93
372.914	26.35
373.126	43.96
373.338	-6.42
373.549	37
373.761	24.71
373.972	5.46
374.184	37.41
374.395	18.16
374.607	39.05
374.819	-25.26
375.03	1.37
375.242	46.42
375.453	22.66
375.664	52.56
375.876	92.7
376.087	10.79
376.299	116.46
376.51	51.34
376.722	14.88
376.933	62.8
377.144	114.41
377.356	-2.32
377.567	72.63
377.778	44.37
377.99	47.24
378.201	102.94
378.412	32.9
378.624	-29.35
378.835	14.06
379.046	13.65
379.257	33.31
379.468	68.95
379.68	7.51
379.891	-36.32
380.102	32.9
380.313	-6.42
380.524	67.31
380.735	32.08
380.946	61.99
381.158	49.29
381.369	9.56
381.58	52.56
381.791	-10.92
382.002	-1.09
382.213	48.06
382.424	18.16
382.635	84.51
382.846	65.26
383.057	47.24
383.268	-10.51
383.479	27.17
383.69	-2.32
383.9	65.67
384.111	82.46
384.322	-20.34
384.533	4.64
384.744	40.69
384.955	94.75
385.166	67.31
385.376	34.95
385.587	93.52
385.798	33.31
386.009	9.97
386.22	36.18
386.43	84.51
386.641	84.1
386.852	23.89
387.062	86.97
387.273	55.84
387.484	45.6
387.694	77.14
387.905	27.58
388.116	82.87
388.326	56.66
388.537	77.55
388.747	42.73
388.958	119.33
389.168	55.84
389.379	34.95
389.59	54.2
389.8	19.8
390.011	5.46
390.221	90.25
390.431	104.17
390.642	41.92
390.852	75.09
391.063	75.5
391.273	63.21
391.484	43.96
391.694	40.69
391.904	36.18
392.115	63.21
392.325	54.61
392.535	26.35
392.746	83.69
392.956	128.34
393.166	22.66
393.376	87.38
393.587	136.12
393.797	140.22
394.007	119.74
394.217	91.07
394.427	66.08
394.638	25.12
394.848	107.04
395.058	117.69
395.268	0.14
395.478	97.62
395.688	24.3
395.898	74.27
396.108	77.55
396.318	43.55
396.528	88.2
396.738	68.95
396.948	166.84
397.158	13.65
397.368	75.09
397.578	9.56
397.788	100.9
397.998	6.69
398.208	86.97
398.418	-39.18
398.628	74.68
398.838	39.05
399.048	98.44
399.258	95.16
399.467	111.55
399.677	52.97
399.887	36.18
400.097	35.36
400.307	99.67
400.516	34.54
400.726	45.19
400.936	77.14
401.146	75.09
401.355	91.89
401.565	109.91
401.775	22.66
401.984	43.55
402.194	28.4
402.404	114
402.613	43.55
402.823	34.54
403.032	68.54
403.242	22.66
403.452	42.73
403.661	75.09
403.871	34.13
404.08	100.08
404.29	116.46
404.499	62.8
404.709	26.76
404.918	94.75
405.128	85.74
405.337	129.98
405.546	50.93
405.756	55.84
405.965	108.68
406.175	108.68
406.384	84.1
406.593	109.5
406.803	-3.96
407.012	104.99
407.221	49.7
407.43	53.38
407.64	72.23
407.849	48.47
408.058	59.53
408.267	31.68
408.477	25.12
408.686	44.78
408.895	71.41
409.104	129.16
409.313	15.7
409.522	57.48
409.732	49.7
409.941	136.53
410.15	116.46
410.359	159.06
410.568	38.23
410.777	115.64
410.986	104.17
411.195	99.67
411.404	126.29
411.613	68.95
411.822	109.5
412.031	121.79
412.24	103.76
412.449	63.21
412.658	110.73
412.867	127.93
413.075	156.6
413.284	120.15
413.493	87.79
413.702	140.63
413.911	86.15
414.12	107.04
414.328	106.22
414.537	91.89
414.746	110.32
414.955	79.6
415.164	90.66
415.372	130.8
415.581	185.68
415.79	94.75
415.998	116.87
416.207	152.92
416.416	185.68
416.624	109.91
416.833	126.29
417.042	147.59
417.25	138.58
417.459	99.26
417.667	105.4
417.876	117.28
418.084	106.22
418.293	102.53
418.501	91.07
418.71	82.06
418.918	108.68
419.127	139.81
419.335	89.02
419.544	106.63
419.752	104.17
419.96	163.56
420.169	97.62
420.377	135.71
420.586	181.59
420.794	140.63
421.002	150.46
421.211	132.84
421.419	112.37
421.627	73.86
421.835	157.83
422.044	122.61
422.252	132.84
422.46	138.17
422.668	142.68
422.877	117.28
423.085	143.08
423.293	134.48
423.501	130.39
423.709	121.38
423.917	95.98
424.125	121.38
424.333	90.25
424.542	163.56
424.75	139.81
424.958	154.96
425.166	139.81
425.374	206.57
425.582	180.77
425.79	114.82
425.998	82.06
426.206	168.07
426.414	191.83
426.621	82.06
426.829	148.82
427.037	87.38
427.245	190.19
427.453	134.89
427.661	142.27
427.869	225.82
428.077	162.75
428.284	136.12
428.492	128.34
428.7	107.86
428.908	110.32
429.115	182.82
429.323	146.77
429.531	132.44
429.739	184.86
429.946	209.85
430.154	141.04
430.362	119.74
430.569	175.85
430.777	227.87
430.985	132.44
431.192	148
431.4	173.8
431.607	159.88
431.815	228.28
432.022	128.34
432.23	155.37
432.437	155.78
432.645	108.68
432.852	127.93
433.06	148
433.267	167.66
433.475	158.24
433.682	253.27
433.89	144.31
434.097	197.97
434.304	178.72
434.512	134.89
434.719	151.69
434.926	159.88
435.134	123.01
435.341	201.25
435.548	204.11
435.756	243.84
435.963	152.1
436.17	189.37
436.377	188.96
436.585	185.27
436.792	117.28
436.999	138.58
437.206	166.02
437.413	183.63
437.621	125.47
437.828	204.52
438.035	164.38
438.242	205.75
438.449	154.96
438.656	209.85
438.863	248.76
439.07	129.57
439.277	239.34
439.484	160.29
439.691	153.32
439.898	248.35
440.105	143.08
440.312	163.15
440.519	102.13
440.726	190.6
440.933	116.87
441.14	223.77
441.347	166.84
441.553	193.46
441.76	225.41
441.967	234.01
442.174	178.31
442.381	155.37
442.587	137.76
442.794	214.35
443.001	144.31
443.208	181.18
443.414	215.58
443.621	184.04
443.828	210.26
444.035	220.09
444.241	153.73
444.448	239.75
444.654	204.52
444.861	243.84
445.068	295.04
445.274	173.39
445.481	213.94
445.687	222.96
445.894	144.72
446.101	244.25
446.307	238.11
446.514	112.77
446.72	222.96
446.926	186.91
447.133	182
447.339	184.04
447.546	203.3
447.752	206.16
447.959	168.07
448.165	182.82
448.371	227.87
448.578	179.54
448.784	221.73
448.99	254.49
449.197	183.22
449.403	236.47
449.609	200.84
449.816	313.48
450.022	214.76
450.228	274.97
450.434	267.6
450.64	238.11
450.847	182.82
451.053	217.63
451.259	233.2
451.465	200.84
451.671	320.44
