Data from FLMT000111__4__14-00-20-113.txt Node

Date: Thu Oct 26 14:00:20 EDT 2023
User: Student
Spectrometer: FLMT00011
Trigger mode: 0
Integration Time (sec): 1.000000E-1
Scans to average: 5
Electric dark correction enabled: true
Nonlinearity correction enabled: false
Boxcar width: 0
XAxis mode: Wavelengths
Number of Pixels in Spectrum: 3648
>>>>>Begin Spectral Data<<<<<
171.25	-195.14
171.475	-195.14
171.699	-195.14
171.923	-201.69
172.147	27.27
172.371	102.64
172.595	7.61
172.819	1.47
173.043	-32.12
173.267	-20.24
173.491	45.7
173.715	-15.33
173.939	5.56
174.163	26.45
174.387	-40.31
174.611	-58.33
174.835	-23.11
175.059	-25.57
175.283	4.33
175.507	-39.08
175.73	31.78
175.954	-8.36
176.178	-14.51
176.402	-57.1
176.626	-19.83
176.85	-21.88
177.073	-36.62
177.297	26.86
177.521	-40.31
177.745	21.13
177.969	-0.17
178.192	18.26
178.416	-12.87
178.64	-82.91
178.863	-14.1
179.087	-36.21
179.311	-5.09
179.534	-44.82
179.758	-44.41
179.982	30.55
180.205	15.39
180.429	0.65
180.653	-27.61
180.876	12.12
181.1	-27.61
181.323	0.65
181.547	32.19
181.77	35.46
181.994	-6.31
182.217	-6.31
182.441	20.31
182.664	8.84
182.888	42.02
183.111	30.96
183.335	-20.65
183.558	16.62
183.782	60.45
184.005	28.5
184.228	-23.52
184.452	59.63
184.675	-61.2
184.899	58.81
185.122	-27.2
185.345	-22.7
185.569	-62.02
185.792	6.79
186.015	-61.61
186.238	-36.21
186.462	78.47
186.685	91.99
186.908	4.74
187.131	4.33
187.355	-16.55
187.578	-20.65
187.801	-28.43
188.024	22.36
188.247	42.84
188.471	-46.45
188.694	38.74
188.917	-8.77
189.14	5.15
189.363	26.45
189.586	-39.49
189.809	20.31
190.032	32.19
190.255	-10.41
190.478	-0.17
190.701	-3.45
190.924	20.31
191.147	-26.38
191.37	-18.19
191.593	39.15
191.816	-47.27
192.039	48.16
192.262	10.48
192.485	-45.64
192.708	28.09
192.931	6.38
193.154	-0.99
193.377	10.89
193.6	-3.86
193.822	-4.68
194.045	-14.51
194.268	20.72
194.491	73.56
194.714	11.3
194.936	15.8
195.159	0.65
195.382	45.29
195.605	-24.75
195.827	12.94
196.05	-2.22
196.273	37.92
196.495	8.43
196.718	50.62
196.941	2.7
197.163	-43.18
197.386	39.56
197.609	-50.14
197.831	-54.65
198.054	92.4
198.277	5.15
198.499	-33.76
198.722	-14.92
198.944	-2.22
199.167	1.88
199.389	15.39
199.612	-2.63
199.834	82.16
200.057	52.67
200.279	-46.86
200.502	-48.5
200.724	-3.86
200.947	-3.86
201.169	-10.82
201.391	-41.95
201.614	38.33
201.836	34.64
202.059	16.62
202.281	-34.58
202.503	-44.41
202.726	-16.96
202.948	-14.1
203.17	-38.67
203.393	-3.45
203.615	-36.62
203.837	-50.55
204.059	28.5
204.282	10.07
204.504	30.96
204.726	-58.74
204.948	-68.16
205.17	28.91
205.393	12.12
205.615	-12.05
205.837	50.62
206.059	-31.71
206.281	11.3
206.503	-23.93
206.725	21.95
206.947	-68.98
207.17	14.17
207.392	-32.12
207.614	-5.5
207.836	-25.16
208.058	19.9
208.28	-42.77
208.502	3.11
208.724	30.96
208.946	82.98
209.168	46.93
209.39	68.64
209.611	49.8
209.833	22.77
210.055	47.34
210.277	39.97
210.499	-6.72
210.721	14.57
210.943	-0.99
211.165	19.49
211.386	46.11
211.608	26.86
211.83	-21.06
212.052	12.94
212.274	36.28
212.495	3.93
212.717	-66.93
212.939	-23.93
213.161	-12.46
213.382	33.42
213.604	24.4
213.826	9.66
214.047	33.42
214.269	7.61
214.491	53.9
214.712	35.05
214.934	0.24
215.155	16.62
215.377	41.2
215.599	69.05
215.82	29.73
216.042	7.61
216.263	-60.79
216.485	24
216.706	29.32
216.928	-0.99
217.149	-8.36
217.371	38.33
217.592	23.59
217.814	-5.9
218.035	33.83
218.257	2.29
218.478	-20.24
218.699	57.58
218.921	20.72
219.142	45.7
219.363	-33.35
219.585	12.53
219.806	10.07
220.027	-57.51
220.249	27.68
220.47	46.11
220.691	8.43
220.913	33.01
221.134	56.35
221.355	-7.13
221.576	-28.84
221.798	-47.27
222.019	16.21
222.24	18.26
222.461	-12.87
222.682	24.81
222.903	8.84
223.125	-3.86
223.346	-10.82
223.567	-22.7
223.788	-17.37
224.009	-57.51
224.23	83.8
224.451	64.95
224.672	-10
224.893	-32.12
225.114	-39.49
225.335	-70.21
225.556	35.05
225.777	-3.45
225.998	16.21
226.219	-14.51
226.44	-5.9
226.661	11.3
226.882	71.92
227.103	-0.17
227.324	-33.35
227.544	32.6
227.765	-43.59
227.986	-21.88
228.207	-9.18
228.428	57.99
228.649	10.48
228.869	-16.14
229.09	22.36
229.311	39.97
229.532	-29.25
229.752	35.87
229.973	-14.92
230.194	64.55
230.415	1.06
230.635	71.51
230.856	7.2
231.077	44.07
231.297	29.73
231.518	39.56
231.739	-27.2
231.959	37.1
232.18	10.48
232.4	8.43
232.621	5.15
232.841	-34.17
233.062	-40.72
233.283	8.43
233.503	1.47
233.724	0.65
233.944	-0.17
234.165	-31.71
234.385	-19.42
234.605	30.14
234.826	-35.81
235.046	56.35
235.267	-11.64
235.487	-20.65
235.708	34.64
235.928	-43.59
236.148	25.63
236.369	34.24
236.589	10.07
236.809	-5.5
237.03	40.79
237.25	-1.81
237.47	-3.04
237.69	32.6
237.911	-4.68
238.131	46.11
238.351	26.86
238.571	3.11
238.792	-8.36
239.012	-11.64
239.232	-13.28
239.452	39.56
239.672	23.18
239.892	-13.28
240.112	-21.06
240.333	-19.83
240.553	-20.65
240.773	24
240.993	12.94
241.213	-39.49
241.433	-10.82
241.653	-1.4
241.873	-3.04
242.093	-50.14
242.313	-12.87
242.533	27.27
242.753	-0.99
242.973	28.91
243.193	-51.37
243.413	-2.63
243.633	6.38
243.853	-15.33
244.072	56.76
244.292	-0.99
244.512	-19.01
244.732	32.19
244.952	41.2
245.172	-0.99
245.391	14.98
245.611	-17.78
245.831	-25.16
246.051	28.91
246.271	36.69
246.49	-20.65
246.71	21.13
246.93	43.66
247.149	-2.22
247.369	-16.96
247.589	6.79
247.808	6.79
248.028	-54.65
248.248	42.02
248.467	15.39
248.687	25.63
248.906	-36.21
249.126	-27.61
249.346	-19.01
249.565	-42.36
249.785	-0.99
250.004	28.91
250.224	9.25
250.443	-16.14
250.663	26.04
250.882	115.74
251.102	3.11
251.321	24.4
251.541	2.29
251.76	6.38
251.979	30.96
252.199	58.81
252.418	-20.24
252.638	7.61
252.857	7.61
253.076	2.7
253.296	-3.45
253.515	-7.95
253.734	-5.9
253.953	30.96
254.173	1.47
254.392	16.21
254.611	32.6
254.83	4.74
255.05	-14.51
255.269	-7.54
255.488	-23.93
255.707	20.72
255.926	-7.54
256.146	1.88
256.365	56.35
256.584	-9.59
256.803	14.98
257.022	19.9
257.241	18.67
257.46	-45.23
257.679	10.48
257.898	12.53
258.117	7.2
258.336	24
258.555	8.02
258.774	-62.84
258.993	40.79
259.212	31.37
259.431	-80.86
259.65	5.15
259.869	-2.63
260.088	9.25
260.307	21.54
260.526	-3.86
260.745	33.01
260.964	123.53
261.182	14.57
261.401	-5.09
261.62	45.29
261.839	20.31
262.058	21.13
262.276	-71.44
262.495	32.6
262.714	13.76
262.933	10.07
263.151	-11.64
263.37	2.29
263.589	70.28
263.807	-55.06
264.026	-8.36
264.245	11.71
264.463	-1.81
264.682	14.57
264.901	9.25
265.119	-17.78
265.338	6.38
265.556	-52.19
265.775	17.03
265.994	18.67
266.212	21.95
266.431	18.67
266.649	-9.59
266.868	10.07
267.086	-43.59
267.305	-12.87
267.523	24
267.742	28.5
267.96	1.88
268.178	30.55
268.397	-13.28
268.615	12.53
268.834	37.92
269.052	-64.07
269.27	-10.41
269.489	-108.71
269.707	28.91
269.925	9.66
270.143	22.36
270.362	3.52
270.58	67.82
270.798	-36.62
271.017	11.3
271.235	5.15
271.453	7.2
271.671	-14.1
271.889	-3.86
272.108	2.7
272.326	-10.41
272.544	-50.55
272.762	23.18
272.98	-9.59
273.198	-19.42
273.416	-19.42
273.634	36.28
273.852	19.9
274.07	44.48
274.289	-15.33
274.507	9.66
274.725	-10
274.943	46.93
275.161	32.19
275.379	-12.05
275.596	-53.01
275.814	-65.71
276.032	3.11
276.25	24.4
276.468	18.26
276.686	-2.22
276.904	-22.29
277.122	-5.09
277.34	44.48
277.557	91.99
277.775	-33.35
277.993	-12.05
278.211	12.53
278.429	85.43
278.646	-27.61
278.864	36.28
279.082	-2.22
279.3	6.38
279.517	45.7
279.735	5.97
279.953	9.66
280.17	-19.01
280.388	8.43
280.606	-43.59
280.823	67.82
281.041	0.65
281.259	-50.96
281.476	38.33
281.694	11.71
281.911	21.95
282.129	17.44
282.346	6.38
282.564	-6.72
282.781	-43.18
282.999	-40.72
283.216	29.73
283.434	3.52
283.651	33.83
283.869	-44
284.086	-19.01
284.304	41.61
284.521	-16.96
284.738	-28.43
284.956	1.88
285.173	-44
285.391	4.33
285.608	20.72
285.825	16.21
286.043	-29.25
286.26	20.72
286.477	3.11
286.694	-13.69
286.912	27.68
287.129	30.96
287.346	-22.7
287.563	-25.98
287.78	-36.21
287.998	-19.01
288.215	25.63
288.432	14.98
288.649	17.44
288.866	48.16
289.083	-6.72
289.3	58.4
289.518	65.36
289.735	-22.29
289.952	6.79
290.169	37.1
290.386	-31.71
290.603	-30.48
290.82	27.27
291.037	-25.16
291.254	-23.52
291.471	-5.5
291.688	-23.11
291.905	-11.23
292.122	-16.14
292.339	-54.24
292.555	-12.87
292.772	11.3
292.989	3.52
293.206	8.84
293.423	-22.29
293.64	62.09
293.857	55.53
294.073	73.15
294.29	145.24
294.507	22.36
294.724	7.61
294.94	-21.47
295.157	-50.14
295.374	22.77
295.591	19.9
295.807	53.49
296.024	-10.82
296.241	37.92
296.457	39.15
296.674	-29.25
296.891	24.81
297.107	18.26
297.324	-34.99
297.54	12.94
297.757	-32.12
297.973	24.4
298.19	47.75
298.407	-25.57
298.623	-7.13
298.84	-5.09
299.056	-22.29
299.272	-11.64
299.489	-25.98
299.705	-0.99
299.922	-59.97
300.138	75.19
300.355	-7.54
300.571	36.69
300.787	11.71
301.004	55.94
301.22	24.4
301.436	-17.37
301.653	26.45
301.869	-18.19
302.085	43.66
302.302	-5.09
302.518	48.98
302.734	6.38
302.95	-1.81
303.167	25.63
303.383	57.17
303.599	13.76
303.815	22.36
304.031	-12.46
304.248	0.65
304.464	12.53
304.68	34.64
304.896	2.29
305.112	5.97
305.328	28.09
305.544	-26.38
305.76	-19.83
305.976	38.74
306.192	2.29
306.408	-7.95
306.624	-28.43
306.84	39.15
307.056	-32.94
307.272	73.15
307.488	19.49
307.704	14.98
307.92	7.2
308.136	57.58
308.352	60.86
308.568	6.79
308.784	2.7
309	27.27
309.215	-15.33
309.431	-5.9
309.647	-7.95
309.863	-1.4
310.079	26.45
310.294	-2.22
310.51	-29.66
310.726	-54.65
310.942	53.49
311.157	-20.65
311.373	42.02
311.589	-50.55
311.804	-24.75
312.02	30.55
312.236	1.06
312.451	24.4
312.667	46.52
312.883	-19.83
313.098	20.72
313.314	53.08
313.529	4.33
313.745	32.19
313.961	30.55
314.176	34.24
314.392	4.33
314.607	-13.69
314.823	33.42
315.038	-28.43
315.253	14.57
315.469	-25.98
315.684	4.33
315.9	-56.29
316.115	15.8
316.331	88.71
316.546	31.37
316.761	-20.24
316.977	46.11
317.192	51.85
317.407	71.92
317.623	-60.79
317.838	68.64
318.053	-5.5
318.268	28.5
318.484	-32.53
318.699	-16.55
318.914	-19.01
319.129	-16.14
319.344	60.86
319.56	42.02
319.775	20.72
319.99	36.69
320.205	-40.31
320.42	51.85
320.635	-10.82
320.85	73.15
321.066	8.43
321.281	20.72
321.496	-12.87
321.711	-17.78
321.926	14.17
322.141	-23.93
322.356	4.74
322.571	-11.64
322.786	-38.67
323.001	-14.51
323.216	-7.54
323.43	20.31
323.645	24
323.86	38.74
324.075	12.94
324.29	24.4
324.505	59.22
324.72	-30.48
324.935	22.77
325.149	12.53
325.364	27.27
325.579	5.56
325.794	-21.88
326.009	-14.1
326.223	-48.09
326.438	-23.52
326.653	-19.42
326.867	26.86
327.082	52.26
327.297	7.2
327.511	53.49
327.726	-20.65
327.941	-2.22
328.155	-75.13
328.37	-12.87
328.585	21.13
328.799	9.25
329.014	-1.81
329.228	-43.18
329.443	-5.5
329.657	-26.79
329.872	-13.69
330.086	30.14
330.301	47.75
330.515	6.79
330.73	23.59
330.944	24.4
331.159	-20.24
331.373	-44.41
331.587	-21.47
331.802	-15.74
332.016	8.02
332.231	5.56
332.445	69.87
332.659	70.28
332.874	10.07
333.088	93.22
333.302	-5.9
333.516	-30.07
333.731	14.57
333.945	38.33
334.159	-13.69
334.373	7.2
334.588	23.18
334.802	26.86
335.016	24
335.23	37.1
335.444	-3.04
335.658	-38.67
335.872	51.03
336.087	14.98
336.301	43.66
336.515	-22.29
336.729	50.21
336.943	6.79
337.157	47.34
337.371	-62.84
337.585	-46.86
337.799	27.68
338.013	-30.07
338.227	-34.99
338.441	40.38
338.655	69.05
338.869	91.17
339.083	-1.4
339.296	-27.2
339.51	-21.47
339.724	28.5
339.938	6.79
340.152	-28.02
340.366	8.02
340.58	47.75
340.793	-16.96
341.007	-5.09
341.221	-59.15
341.435	74.78
341.648	33.83
341.862	10.07
342.076	-17.78
342.29	41.61
342.503	-30.07
342.717	-7.13
342.931	-25.57
343.144	22.77
343.358	2.7
343.571	29.73
343.785	8.43
343.999	72.74
344.212	53.08
344.426	-16.55
344.639	-28.84
344.853	31.37
345.066	-14.51
345.28	29.73
345.493	-4.27
345.707	-18.6
345.92	3.11
346.134	7.61
346.347	3.11
346.561	-5.9
346.774	21.54
346.987	39.15
347.201	-24.34
347.414	-33.35
347.627	-58.74
347.841	18.67
348.054	5.97
348.267	52.26
348.481	17.03
348.694	9.66
348.907	-22.29
349.12	-6.72
349.334	-5.5
349.547	-31.3
349.76	25.22
349.973	-4.27
350.186	-38.67
350.4	-8.77
350.613	47.34
350.826	-17.37
351.039	-2.63
351.252	60.86
351.465	-31.71
351.678	-15.33
351.891	-3.45
352.104	-25.98
352.317	2.29
352.53	-22.29
352.743	-20.24
352.956	-24.75
353.169	10.07
353.382	62.09
353.595	-21.06
353.808	-21.88
354.021	7.2
354.234	97.72
354.447	-46.45
354.66	10.48
354.873	0.24
355.086	62.91
355.298	-5.5
355.511	15.8
355.724	8.84
355.937	91.58
356.15	45.7
356.362	30.14
356.575	-5.09
356.788	22.36
357.001	-28.02
357.213	1.88
357.426	14.17
357.639	27.27
357.851	-23.93
358.064	39.15
358.277	24.4
358.489	14.17
358.702	67.41
358.914	-41.54
359.127	19.9
359.34	19.08
359.552	24.81
359.765	-31.3
359.977	56.35
360.19	21.54
360.402	19.08
360.615	53.08
360.827	-31.3
361.04	64.14
361.252	-37.44
361.465	-15.74
361.677	0.24
361.889	40.79
362.102	-3.04
362.314	19.49
362.526	18.67
362.739	-2.63
362.951	-6.72
363.163	9.66
363.376	-57.51
363.588	8.02
363.8	-20.24
364.012	11.71
364.225	-59.56
364.437	22.77
364.649	38.33
364.861	15.8
365.074	-4.27
365.286	26.45
365.498	-49.32
365.71	7.61
365.922	-17.37
366.134	7.61
366.346	-7.95
366.558	39.97
366.77	-19.01
366.983	50.62
367.195	-42.36
367.407	62.09
367.619	39.56
367.831	30.55
368.043	-16.96
368.255	54.31
368.467	36.69
368.678	46.52
368.89	-61.61
369.102	52.26
369.314	10.48
369.526	19.9
369.738	-3.86
369.95	-12.46
370.162	40.79
370.373	-1.81
370.585	28.5
370.797	0.65
371.009	4.33
371.221	-7.95
371.432	-3.45
371.644	17.85
371.856	19.49
372.068	23.18
372.279	-15.74
372.491	18.26
372.703	-18.19
372.914	1.88
373.126	32.6
373.338	-19.83
373.549	20.31
373.761	21.54
373.972	-19.42
374.184	4.74
374.395	31.78
374.607	43.66
374.819	1.47
375.03	12.12
375.242	24.81
375.453	3.52
375.664	30.14
375.876	8.02
376.087	-10.41
376.299	37.51
376.51	-7.54
376.722	3.11
376.933	-7.13
377.144	107.96
377.356	-22.29
377.567	13.76
377.778	37.51
377.99	12.53
378.201	21.95
378.412	30.14
378.624	22.77
378.835	5.15
379.046	-42.77
379.257	-1.4
379.468	33.01
379.68	-13.69
379.891	-16.96
380.102	39.15
380.313	-25.98
380.524	52.26
380.735	-13.69
380.946	4.33
381.158	3.52
381.369	-41.95
381.58	48.98
381.791	-30.07
382.002	-13.69
382.213	21.13
382.424	38.74
382.635	56.35
382.846	73.97
383.057	30.55
383.268	-63.25
383.479	26.04
383.69	-12.87
383.9	37.51
384.111	21.54
384.322	-5.9
384.533	-10.41
384.744	32.6
384.955	10.07
385.166	39.15
385.376	-14.1
385.587	64.95
385.798	3.93
386.009	-1.81
386.22	-28.02
386.43	44.48
386.641	16.21
386.852	-15.33
387.062	39.56
387.273	30.14
387.484	-29.66
387.694	52.67
387.905	10.89
388.116	65.36
388.326	-17.78
388.537	62.5
388.747	2.29
388.958	28.5
389.168	17.03
389.379	5.56
389.59	-25.57
389.8	-16.55
390.011	-0.58
390.221	12.53
390.431	42.02
390.642	55.12
390.852	35.05
391.063	-20.65
391.273	50.21
391.484	1.47
391.694	-5.5
391.904	16.62
392.115	-0.99
392.325	5.15
392.535	3.93
392.746	12.53
392.956	53.49
393.166	-39.9
393.376	1.88
393.587	90.76
393.797	57.99
394.007	28.09
394.217	51.85
394.427	72.33
394.638	40.79
394.848	85.84
395.058	87.48
395.268	-27.61
395.478	16.21
395.688	-31.3
395.898	2.7
396.108	33.83
396.318	-23.93
396.528	42.84
396.738	36.28
396.948	78.06
397.158	-33.76
397.368	57.17
397.578	-54.65
397.788	-10
397.998	-49.73
398.208	-5.09
398.418	-22.29
398.628	1.88
398.838	15.39
399.048	21.13
399.258	58.81
399.467	15.39
399.677	-10
399.887	-31.3
400.097	-12.05
400.307	21.54
400.516	1.88
400.726	8.84
400.936	11.71
401.146	28.91
401.355	27.27
401.565	51.44
401.775	-20.65
401.984	11.3
402.194	-55.47
402.404	89.53
402.613	23.59
402.823	3.93
403.032	-12.05
403.242	1.06
403.452	-4.68
403.661	49.39
403.871	-30.48
404.08	79.7
404.29	53.49
404.499	-4.68
404.709	-35.4
404.918	12.12
405.128	-3.45
405.337	-31.3
405.546	-53.83
405.756	-5.5
405.965	21.13
406.175	14.57
406.384	-1.81
406.593	-5.09
406.803	-84.55
407.012	51.44
407.221	-43.18
407.43	-37.03
407.64	-42.36
407.849	-17.37
408.058	-47.68
408.267	-7.13
408.477	-14.1
408.686	-22.7
408.895	-50.55
409.104	-5.9
409.313	-49.32
409.522	-20.65
409.732	9.66
409.941	60.04
410.15	27.68
410.359	26.04
410.568	-65.3
410.777	67
410.986	-8.36
411.195	-73.49
411.404	37.92
411.613	23.18
411.822	10.48
412.031	50.21
412.24	11.3
412.449	-37.03
412.658	-22.7
412.867	-11.23
413.075	16.62
413.284	18.67
413.493	-9.59
413.702	-3.86
413.911	-7.54
414.12	-1.81
414.328	-0.58
414.537	2.29
414.746	-10.41
414.955	30.55
415.164	-39.08
415.372	-14.51
415.581	58.4
415.79	-18.6
415.998	-22.29
416.207	58.81
416.416	46.52
416.624	-7.95
416.833	42.43
417.042	25.63
417.25	19.08
417.459	-23.11
417.667	-11.64
417.876	-32.12
418.084	-12.05
418.293	-36.62
418.501	24
418.71	-44.41
418.918	30.55
419.127	19.9
419.335	-15.74
419.544	10.07
419.752	-11.64
419.96	69.05
420.169	-55.47
420.377	30.55
420.586	48.98
420.794	-2.63
421.002	6.38
421.211	10.48
421.419	-48.91
421.627	-39.49
421.835	29.73
422.044	0.24
422.252	-16.55
422.46	38.33
422.668	-10.82
422.877	-10
423.085	44.88
423.293	2.29
423.501	8.43
423.709	-64.48
423.917	-7.13
424.125	-50.55
424.333	-32.94
424.542	-5.09
424.75	-29.25
424.958	-39.49
425.166	28.5
425.374	110.42
425.582	23.59
425.79	-31.71
425.998	-30.48
426.206	48.57
426.414	33.42
426.621	-19.42
426.829	-18.6
427.037	2.29
427.245	34.24
427.453	-16.14
427.661	-53.83
427.869	65.77
428.077	-1.81
428.284	-30.48
428.492	5.56
428.7	-12.05
428.908	-36.21
429.115	39.97
429.323	11.71
429.531	-0.58
429.739	54.31
429.946	49.8
430.154	23.18
430.362	10.48
430.569	-6.31
430.777	44.07
430.985	-35.4
431.192	31.78
431.4	42.84
431.607	5.15
431.815	104.69
432.022	-23.52
432.23	-0.99
432.437	36.69
432.645	-28.84
432.852	-32.12
433.06	38.33
433.267	-4.27
433.475	0.24
433.682	98.54
433.89	-12.87
434.097	16.21
434.304	31.78
434.512	-4.27
434.719	16.62
434.926	-45.23
435.134	-69.8
435.341	53.08
435.548	61.68
435.756	39.97
435.963	-45.23
436.17	64.55
436.377	20.72
436.585	2.7
436.792	-5.9
436.999	-53.83
437.206	22.77
437.413	16.62
437.621	-50.55
437.828	49.39
438.035	-18.19
438.242	1.47
438.449	-10.82
438.656	39.97
438.863	56.35
439.07	-37.85
439.277	-4.27
439.484	-44.82
439.691	-16.14
439.898	39.97
440.105	-57.51
440.312	-16.14
440.519	-48.09
440.726	11.3
440.933	-24.75
441.14	3.93
441.347	21.54
441.553	33.01
441.76	19.49
441.967	4.74
442.174	27.27
442.381	-50.96
442.587	-40.31
442.794	26.86
443.001	-40.31
443.208	17.44
443.414	19.08
443.621	16.62
443.828	28.91
444.035	14.57
444.241	3.93
444.448	57.58
444.654	-19.01
444.861	34.64
445.068	88.3
445.274	-49.73
445.481	12.94
445.687	8.02
445.894	-40.31
446.101	30.14
446.307	43.66
446.514	-61.61
446.72	4.33
446.926	-9.59
447.133	-41.54
447.339	18.67
447.546	40.38
447.752	11.3
447.959	-71.44
448.165	-4.27
448.371	41.2
448.578	11.3
448.784	-3.45
448.99	81.34
449.197	-54.65
449.403	34.24
449.609	-11.64
449.816	47.34
450.022	-17.37
450.228	42.84
450.434	71.1
450.64	5.15
450.847	-7.54
451.053	55.12
451.259	15.39
451.465	15.8
451.671	57.99
451.877	94.86
452.083	32.19
452.289	41.61
452.496	-37.44
452.702	-29.66
452.908	8.84
453.114	33.83
