Data from FLMT000111__2__14-24-54-556.txt Node

Date: Thu Oct 26 14:24:54 EDT 2023
User: Student
Spectrometer: FLMT00011
Trigger mode: 0
Integration Time (sec): 1.000000E-1
Scans to average: 5
Electric dark correction enabled: true
Nonlinearity correction enabled: false
Boxcar width: 0
XAxis mode: Wavelengths
Number of Pixels in Spectrum: 3648
>>>>>Begin Spectral Data<<<<<
171.25	-271.59
171.475	-271.59
171.699	-271.59
171.923	-206.47
172.147	49.94
172.371	142.91
172.595	6.11
172.819	20.86
173.043	-41.4
173.267	-30.75
173.491	3.65
173.715	16.35
173.939	-22.97
174.163	-16.01
174.387	-36.49
174.611	-20.51
174.835	-21.74
175.059	-25.43
175.283	13.07
175.507	4.88
175.73	33.14
175.954	17.99
176.178	-34.44
176.402	-20.92
176.626	-20.1
176.85	-80.31
177.073	-52.05
177.297	-1.26
177.521	-23.79
177.745	-31.98
177.969	23.31
178.192	29.05
178.416	30.69
178.64	-32.8
178.863	27
179.087	-12.73
179.311	44.2
179.534	-3.72
179.758	-44.68
179.982	108.1
180.205	-1.26
180.429	25.36
180.653	-6.59
180.876	13.48
181.1	-41.4
181.323	-22.56
181.547	12.25
181.77	63.45
181.994	17.58
182.217	-15.19
182.441	43.79
182.664	23.72
182.888	67.55
183.111	13.89
183.335	-28.71
183.558	38.47
183.782	62.22
184.005	75.74
184.228	10.21
184.452	42.56
184.675	-76.63
184.899	32.32
185.122	15.94
185.345	-11.5
185.569	-27.48
185.792	20.86
186.015	-45.09
186.238	-17.24
186.462	66.32
186.685	145.37
186.908	4.47
187.131	73.69
187.355	-2.08
187.578	7.34
187.801	19.22
188.024	-13.14
188.247	45.43
188.471	-31.16
188.694	70.83
188.917	12.25
189.14	0.79
189.363	38.88
189.586	-25.02
189.809	85.57
190.032	21.26
190.255	10.62
190.478	-13.55
190.701	-20.1
190.924	24.95
191.147	-25.43
191.37	-27.07
191.593	85.98
191.816	4.06
192.039	60.18
192.262	40.52
192.485	25.36
192.708	41.74
192.931	9.8
193.154	48.3
193.377	-36.08
193.6	47.48
193.822	-12.32
194.045	-26.66
194.268	4.47
194.491	45.02
194.714	34.37
194.936	15.53
195.159	25.36
195.382	37.24
195.605	11.43
195.827	13.89
196.05	46.66
196.273	-26.25
196.495	32.73
196.718	44.61
196.941	-13.96
197.163	17.99
197.386	42.97
197.609	-51.64
197.831	-57.38
198.054	86.39
198.277	52.8
198.499	-50.41
198.722	1.19
198.944	16.35
199.167	-4.95
199.389	-25.02
199.612	-13.14
199.834	135.13
200.057	38.88
200.279	-4.95
200.502	-41.4
200.724	-45.5
200.947	-14.78
201.169	-32.39
201.391	-30.75
201.614	79.43
201.836	65.91
202.059	24.95
202.281	38.88
202.503	21.67
202.726	-31.57
202.948	1.19
203.17	-29.52
203.393	21.26
203.615	23.31
203.837	3.24
204.059	31.91
204.282	6.11
204.504	-1.26
204.726	-9.45
204.948	-47.14
205.17	44.61
205.393	-0.03
205.615	-16.83
205.837	39.7
206.059	23.31
206.281	41.33
206.503	33.96
206.725	-41.4
206.947	-65.98
207.17	34.37
207.392	-21.74
207.614	-32.39
207.836	-15.19
208.058	13.07
208.28	-11.5
208.502	37.24
208.724	34.78
208.946	110.97
209.168	51.98
209.39	65.5
209.611	35.19
209.833	23.31
210.055	47.89
210.277	29.46
210.499	49.53
210.721	39.7
210.943	-24.61
211.165	31.5
211.386	37.24
211.608	53.62
211.83	-51.23
212.052	-29.52
212.274	46.25
212.495	-26.66
212.717	-17.24
212.939	-36.08
213.161	-1.67
213.382	1.19
213.604	15.53
213.826	10.62
214.047	82.29
214.269	40.93
214.491	32.73
214.712	59.36
214.934	35.19
215.155	32.32
215.377	70.01
215.599	88.03
215.82	16.76
216.042	24.95
216.263	23.31
216.485	4.88
216.706	22.49
216.928	-32.8
217.149	37.24
217.371	9.39
217.592	-7.82
217.814	-36.9
218.035	46.66
218.257	6.52
218.478	13.48
218.699	51.98
218.921	17.58
219.142	47.89
219.363	21.67
219.585	36.42
219.806	-11.09
220.027	-27.89
220.249	32.32
220.47	76.15
220.691	-8.64
220.913	27.41
221.134	40.52
221.355	20.45
221.576	38.06
221.798	-23.79
222.019	-2.49
222.24	34.78
222.461	27.82
222.682	83.52
222.903	26.18
223.125	60.59
223.346	15.53
223.567	-42.63
223.788	-41.81
224.009	-35.67
224.23	113.42
224.451	68.37
224.672	-7
224.893	17.17
225.114	-3.72
225.335	-39.36
225.556	34.37
225.777	21.67
225.998	33.55
226.219	4.88
226.44	31.5
226.661	38.47
226.882	24.95
227.103	1.19
227.324	-21.74
227.544	62.63
227.765	-2.49
227.986	-1.26
228.207	2.83
228.428	10.21
228.649	28.23
228.869	-5.77
229.09	40.93
229.311	47.48
229.532	-22.56
229.752	19.63
229.973	-12.73
230.194	47.48
230.415	-17.65
230.635	56.9
230.856	33.96
231.077	63.45
231.297	38.06
231.518	42.15
231.739	-28.71
231.959	42.15
232.18	0.79
232.4	62.63
232.621	13.89
232.841	2.01
233.062	-61.06
233.283	-20.51
233.503	39.7
233.724	15.53
233.944	18.81
234.165	0.79
234.385	-10.68
234.605	83.11
234.826	-20.51
235.046	8.16
235.267	-14.78
235.487	20.86
235.708	67.96
235.928	-5.36
236.148	51.17
236.369	59.36
236.589	1.6
236.809	-7
237.03	37.65
237.25	16.35
237.47	40.93
237.69	6.52
237.911	0.38
238.131	51.17
238.351	55.26
238.571	67.96
238.792	-4.54
239.012	15.53
239.232	-39.76
239.452	41.74
239.672	54.44
239.892	-18.47
240.112	15.53
240.333	-14.78
240.553	4.47
240.773	69.6
240.993	8.57
241.213	-4.13
241.433	-13.14
241.653	5.29
241.873	-11.5
242.093	-22.56
242.313	10.62
242.533	61
242.753	52.39
242.973	72.87
243.193	6.52
243.413	-25.43
243.633	27.41
243.853	24.54
244.072	48.3
244.292	39.29
244.512	-59.83
244.732	56.9
244.952	7.75
245.172	67.96
245.391	16.76
245.611	-1.26
245.831	-19.69
246.051	24.54
246.271	61.81
246.49	-27.48
246.71	35.6
246.93	34.37
247.149	-7.41
247.369	-12.32
247.589	52.39
247.808	29.87
248.028	-15.6
248.248	24.95
248.467	19.63
248.687	45.43
248.906	-32.39
249.126	10.62
249.346	15.12
249.565	-18.06
249.785	22.08
250.004	27.41
250.224	12.66
250.443	31.5
250.663	39.7
250.882	94.99
251.102	-7.82
251.321	55.67
251.541	31.91
251.76	14.71
251.979	36.01
252.199	45.02
252.418	-25.02
252.638	23.72
252.857	44.61
253.076	18.81
253.296	34.37
253.515	8.16
253.734	23.31
253.953	30.69
254.173	2.83
254.392	-3.31
254.611	42.97
254.83	20.04
255.05	20.45
255.269	12.25
255.488	35.6
255.707	50.76
255.926	25.77
256.146	14.71
256.365	107.69
256.584	-43.45
256.803	-13.55
257.022	33.14
257.241	12.25
257.46	-11.09
257.679	7.34
257.898	11.43
258.117	-7
258.336	80.25
258.555	27
258.774	-34.44
258.993	60.59
259.212	12.25
259.431	-41.4
259.65	21.67
259.869	30.69
260.088	49.12
260.307	37.24
260.526	-35.67
260.745	21.26
260.964	83.52
261.182	4.88
261.401	-10.68
261.62	56.49
261.839	49.53
262.058	26.59
262.276	-38.95
262.495	69.6
262.714	70.01
262.933	-8.64
263.151	18.4
263.37	44.61
263.589	98.27
263.807	-10.27
264.026	15.12
264.245	11.43
264.463	3.24
264.682	-17.24
264.901	-0.03
265.119	-11.09
265.338	50.35
265.556	2.83
265.775	60.59
265.994	36.83
266.212	18.4
266.431	-2.9
266.649	42.56
266.868	25.36
267.086	-27.89
267.305	-13.96
267.523	15.12
267.742	21.67
267.96	9.8
268.178	65.91
268.397	22.08
268.615	10.21
268.834	73.28
269.052	-38.13
269.27	39.29
269.489	-82.77
269.707	29.05
269.925	-0.03
270.143	28.64
270.362	-5.77
270.58	90.08
270.798	-7.41
271.017	59.36
271.235	31.91
271.453	76.56
271.671	38.47
271.889	-3.31
272.108	23.31
272.326	-12.32
272.544	-3.31
272.762	109.33
272.98	40.52
273.198	-13.14
273.416	-58.2
273.634	48.71
273.852	43.38
274.07	46.66
274.289	-21.33
274.507	-10.27
274.725	52.8
274.943	90.49
275.161	84.34
275.379	36.42
275.596	2.01
275.814	-44.27
276.032	1.19
276.25	27
276.468	33.55
276.686	-2.08
276.904	-32.39
277.122	-54.51
277.34	76.56
277.557	46.25
277.775	-36.08
277.993	11.02
278.211	120.39
278.429	64.27
278.646	20.86
278.864	49.53
279.082	41.74
279.3	22.08
279.517	43.38
279.735	-0.03
279.953	33.55
280.17	-16.83
280.388	20.04
280.606	-25.02
280.823	59.36
281.041	88.44
281.259	-68.44
281.476	20.86
281.694	-1.67
281.911	29.46
282.129	92.12
282.346	-18.47
282.564	-7.41
282.781	20.04
282.999	14.71
283.216	25.36
283.434	16.76
283.651	63.04
283.869	-30.34
284.086	-4.95
284.304	44.2
284.521	6.93
284.738	-49.59
284.956	40.11
285.173	-9.86
285.391	-16.42
285.608	39.7
285.825	58.95
286.043	12.66
286.26	10.21
286.477	5.29
286.694	45.84
286.912	33.14
287.129	92.53
287.346	17.58
287.563	-11.09
287.78	-4.13
287.998	-12.73
288.215	-8.64
288.432	7.75
288.649	25.77
288.866	45.84
289.083	11.84
289.3	69.6
289.518	85.98
289.735	-22.56
289.952	16.35
290.169	79.43
290.386	-1.67
290.603	-30.75
290.82	74.51
291.037	-34.85
291.254	47.48
291.471	50.76
291.688	6.11
291.905	12.25
292.122	-15.6
292.339	-24.2
292.555	12.66
292.772	19.22
292.989	-12.73
293.206	23.72
293.423	-17.65
293.64	29.46
293.857	79.84
294.073	92.53
294.29	153.56
294.507	0.38
294.724	3.65
294.94	-11.91
295.157	-15.6
295.374	10.62
295.591	8.57
295.807	61.4
296.024	41.74
296.241	27.41
296.457	91.31
296.674	-27.48
296.891	51.98
297.107	11.02
297.324	-8.23
297.54	58.95
297.757	-38.95
297.973	45.02
298.19	62.63
298.407	7.34
298.623	-17.24
298.84	40.11
299.056	1.6
299.272	24.95
299.489	-18.88
299.705	12.66
299.922	32.73
300.138	73.69
300.355	14.3
300.571	101.14
300.787	25.77
301.004	65.91
301.22	30.28
301.436	12.25
301.653	8.57
301.869	0.38
302.085	32.73
302.302	27.82
302.518	91.31
302.734	12.66
302.95	-45.91
303.167	17.99
303.383	53.62
303.599	37.65
303.815	20.86
304.031	45.84
304.248	19.22
304.464	53.21
304.68	25.36
304.896	53.62
305.112	46.25
305.328	36.83
305.544	-0.03
305.76	11.84
305.976	40.11
306.192	-18.06
306.408	15.94
306.624	-45.91
306.84	53.62
307.056	-6.59
307.272	80.66
307.488	56.49
307.704	-0.44
307.92	7.34
308.136	45.43
308.352	128.17
308.568	1.6
308.784	-35.26
309	29.46
309.215	8.98
309.431	23.31
309.647	22.49
309.863	43.38
310.079	0.38
310.294	22.9
310.51	-24.2
310.726	-34.85
310.942	96.22
311.157	29.05
311.373	107.69
311.589	-65.57
311.804	2.42
312.02	40.93
312.236	-18.06
312.451	38.47
312.667	99.91
312.883	5.7
313.098	26.59
313.314	1.19
313.529	13.89
313.745	56.49
313.961	82.29
314.176	64.68
314.392	53.21
314.607	-10.27
314.823	76.56
315.038	-42.63
315.253	6.52
315.469	-29.12
315.684	4.06
315.9	-15.19
316.115	23.31
316.331	101.55
316.546	47.48
316.761	-19.69
316.977	78.2
317.192	70.83
317.407	49.53
317.623	-70.07
317.838	34.37
318.053	11.43
318.268	42.97
318.484	-18.88
318.699	11.84
318.914	42.15
319.129	15.12
319.344	37.24
319.56	92.53
319.775	28.23
319.99	58.95
320.205	4.47
320.42	86.39
320.635	-16.42
320.85	102.77
321.066	27.41
321.281	27.82
321.496	86.8
321.711	45.02
321.926	-4.13
322.141	-1.67
322.356	-2.9
322.571	36.83
322.786	6.52
323.001	34.78
323.216	74.1
323.43	68.78
323.645	11.02
323.86	54.85
324.075	5.29
324.29	20.45
324.505	73.28
324.72	-53.28
324.935	50.76
325.149	38.88
325.364	12.66
325.579	5.29
325.794	-37.31
326.009	74.92
326.223	3.24
326.438	-20.51
326.653	65.09
326.867	71.64
327.082	40.93
327.297	24.95
327.511	42.97
327.726	-4.54
327.941	13.07
328.155	-15.19
328.37	-5.36
328.585	14.71
328.799	1.6
329.014	30.28
329.228	-5.77
329.443	-63.11
329.657	-1.26
329.872	27.41
330.086	5.7
330.301	63.04
330.515	73.28
330.73	29.87
330.944	39.29
331.159	8.16
331.373	9.39
331.587	-7.41
331.802	-7.82
332.016	33.14
332.231	16.76
332.445	81.88
332.659	63.04
332.874	26.59
333.088	46.25
333.302	15.94
333.516	41.74
333.731	55.67
333.945	30.69
334.159	1.19
334.373	17.99
334.588	14.71
334.802	38.06
335.016	72.05
335.23	8.57
335.444	6.52
335.658	-23.38
335.872	38.47
336.087	59.36
336.301	102.77
336.515	-25.43
336.729	68.37
336.943	25.36
337.157	94.99
337.371	-11.5
337.585	31.5
337.799	44.2
338.013	28.64
338.227	-17.24
338.441	63.04
338.655	26.59
338.869	60.59
339.083	48.71
339.296	-16.42
339.51	1.19
339.724	58.54
339.938	20.45
340.152	-14.78
340.366	36.83
340.58	61.4
340.793	-12.32
341.007	-11.09
341.221	4.47
341.435	79.84
341.648	40.93
341.862	15.94
342.076	4.88
342.29	53.21
342.503	21.67
342.717	1.19
342.931	3.24
343.144	-13.55
343.358	-16.42
343.571	50.35
343.785	18.81
343.999	95.81
344.212	74.51
344.426	41.33
344.639	2.83
344.853	69.6
345.066	-13.14
345.28	15.94
345.493	26.59
345.707	-2.49
345.92	-2.49
346.134	36.83
346.347	5.7
346.561	27.41
346.774	42.56
346.987	38.06
347.201	24.95
347.414	-45.09
347.627	-7.82
347.841	24.13
348.054	1.6
348.267	85.98
348.481	67.14
348.694	29.87
348.907	3.24
349.12	40.11
349.334	-11.5
349.547	-32.39
349.76	63.86
349.973	-17.65
350.186	-7.41
350.4	18.4
350.613	40.93
350.826	12.25
351.039	42.97
351.252	54.03
351.465	-22.56
351.678	8.98
351.891	15.12
352.104	4.47
352.317	13.48
352.53	-12.73
352.743	-26.66
352.956	-4.13
353.169	-0.85
353.382	84.34
353.595	-43.04
353.808	-29.93
354.021	31.91
354.234	67.14
354.447	-25.02
354.66	58.95
354.873	22.9
355.086	119.57
355.298	26.18
355.511	30.69
355.724	-17.65
355.937	125.71
356.15	90.08
356.362	26.18
356.575	24.54
356.788	47.07
357.001	18.81
357.213	-2.08
357.426	70.01
357.639	45.02
357.851	40.11
358.064	52.39
358.277	6.52
358.489	-6.59
358.702	32.32
358.914	-48.37
359.127	11.02
359.34	30.69
359.552	42.15
359.765	-8.23
359.977	85.57
360.19	72.05
360.402	13.89
360.615	13.89
360.827	-3.31
361.04	124.48
361.252	9.8
361.465	32.73
361.677	32.32
361.889	45.84
362.102	-16.01
362.314	61.81
362.526	49.12
362.739	13.07
362.951	28.23
363.163	34.78
363.376	-15.6
363.588	-22.56
363.8	-1.67
364.012	80.66
364.225	-40.17
364.437	37.65
364.649	138
364.861	17.99
365.074	24.95
365.286	31.91
365.498	27.41
365.71	42.15
365.922	10.21
366.134	11.84
366.346	17.17
366.558	25.77
366.77	-23.79
366.983	66.73
367.195	-24.2
367.407	49.12
367.619	72.46
367.831	63.04
368.043	20.86
368.255	51.98
368.467	43.38
368.678	39.29
368.89	-75.4
369.102	40.52
369.314	69.19
369.526	-7.82
369.738	43.38
369.95	18.81
370.162	43.38
370.373	22.49
370.585	49.94
370.797	73.28
371.009	49.94
371.221	-9.45
371.432	17.99
371.644	90.9
371.856	5.29
372.068	-11.09
372.279	24.95
372.491	63.04
372.703	-7.41
372.914	34.78
373.126	43.79
373.338	-59.83
373.549	68.78
373.761	13.89
373.972	-9.05
374.184	12.25
374.395	48.3
374.607	39.29
374.819	-41.81
375.03	18.81
375.242	51.98
375.453	-0.03
375.664	13.89
375.876	45.02
376.087	12.25
376.299	66.73
376.51	20.86
376.722	7.34
376.933	63.86
377.144	94.17
377.356	-23.79
377.567	22.49
377.778	58.95
377.99	6.93
378.201	43.38
378.412	26.18
378.624	15.94
378.835	-6.18
379.046	-38.13
379.257	14.3
379.468	50.35
379.68	-2.9
379.891	-12.32
380.102	5.29
380.313	-5.36
380.524	18.81
380.735	10.21
380.946	-14.78
381.158	5.7
381.369	1.19
381.58	55.67
381.791	-42.63
382.002	-21.74
382.213	36.01
382.424	53.62
382.635	61.4
382.846	63.86
383.057	59.36
383.268	-36.49
383.479	17.99
383.69	4.88
383.9	101.95
384.111	70.01
384.322	-27.48
384.533	-13.96
384.744	38.06
384.955	31.5
385.166	21.67
385.376	7.75
385.587	36.01
385.798	-18.47
386.009	-27.48
386.22	9.39
386.43	51.17
386.641	47.89
386.852	55.26
387.062	51.57
387.273	56.49
387.484	13.48
387.694	12.66
387.905	6.52
388.116	12.66
388.326	13.07
388.537	69.19
388.747	47.48
388.958	100.73
389.168	34.37
389.379	1.19
389.59	4.47
389.8	-0.03
390.011	11.84
390.221	50.76
390.431	47.89
390.642	51.17
390.852	58.95
391.063	-4.54
391.273	33.14
391.484	-6.18
391.694	-0.03
391.904	16.35
392.115	28.23
392.325	31.09
392.535	10.21
392.746	79.84
392.956	70.42
393.166	-39.36
393.376	13.07
393.587	77.38
393.797	72.05
394.007	82.7
394.217	12.25
394.427	45.43
394.638	45.43
394.848	85.16
395.058	85.98
395.268	-28.3
395.478	71.64
395.688	-2.9
395.898	36.42
396.108	36.83
396.318	18.81
396.528	45.84
396.738	62.63
396.948	81.48
397.158	-16.42
397.368	53.62
397.578	-52.05
397.788	60.59
397.998	-76.22
398.208	28.64
398.418	-46.32
398.628	16.76
398.838	3.24
399.048	49.12
399.258	60.59
399.467	79.02
399.677	33.55
399.887	17.58
400.097	22.9
400.307	72.87
400.516	24.95
400.726	-10.68
400.936	9.8
401.146	6.52
401.355	31.09
401.565	47.48
401.775	-20.92
401.984	-20.1
402.194	-43.04
402.404	56.08
402.613	10.62
402.823	0.79
403.032	40.93
403.242	-34.44
403.452	-11.09
403.661	49.12
403.871	-13.14
404.08	75.33
404.29	83.11
404.499	15.53
404.709	-10.68
404.918	41.33
405.128	49.53
405.337	18.4
405.546	29.05
405.756	-13.96
405.965	51.17
406.175	45.43
406.384	52.39
406.593	54.03
406.803	-60.65
407.012	24.95
407.221	-34.44
407.43	19.63
407.64	9.8
407.849	1.19
408.058	-9.86
408.267	3.65
408.477	-29.93
408.686	-10.68
408.895	-41.81
409.104	36.42
409.313	-26.66
409.522	-54.51
409.732	9.8
409.941	68.78
410.15	61.81
410.359	92.53
410.568	-25.02
410.777	62.63
410.986	56.08
411.195	8.98
411.404	22.08
411.613	36.01
411.822	22.49
412.031	55.26
412.24	10.62
412.449	9.8
412.658	5.29
412.867	31.09
413.075	12.66
413.284	40.52
413.493	21.26
413.702	50.35
413.911	68.78
414.12	53.21
414.328	24.54
414.537	48.3
414.746	42.15
414.955	29.05
415.164	-7.41
415.372	47.07
415.581	59.77
415.79	-33.62
415.998	7.34
416.207	36.83
416.416	70.42
416.624	21.26
416.833	67.55
417.042	70.42
417.25	56.9
417.459	18.4
417.667	17.99
417.876	61
418.084	33.96
418.293	-50.41
418.501	0.79
418.71	3.65
418.918	-1.67
419.127	-18.47
419.335	8.16
419.544	-37.72
419.752	4.47
419.96	61
420.169	-14.78
420.377	40.52
420.586	43.38
420.794	42.15
421.002	23.31
421.211	56.9
421.419	-24.61
421.627	-30.75
421.835	18.81
422.044	-11.91
422.252	61.81
422.46	48.71
422.668	11.84
422.877	-9.86
423.085	75.33
423.293	24.95
423.501	40.11
423.709	-9.86
423.917	-9.86
424.125	-19.29
424.333	-3.72
424.542	14.71
424.75	32.32
424.958	12.66
425.166	16.35
425.374	85.98
425.582	57.72
425.79	-1.67
425.998	-35.26
426.206	49.53
426.414	42.56
426.621	0.79
426.829	0.38
427.037	22.9
427.245	93.76
427.453	67.14
427.661	-40.99
427.869	92.94
428.077	22.49
428.284	-4.54
428.492	31.09
428.7	-14.78
428.908	12.25
429.115	50.35
429.323	42.97
429.531	42.97
429.739	85.57
429.946	90.9
430.154	11.84
430.362	26.59
430.569	16.76
430.777	76.56
430.985	-5.36
431.192	40.52
431.4	82.29
431.607	-2.9
431.815	110.56
432.022	-14.78
432.23	29.05
432.437	53.62
432.645	-36.9
432.852	-16.42
433.06	48.3
433.267	40.93
433.475	4.06
433.682	69.6
433.89	-15.6
434.097	38.47
434.304	36.42
434.512	1.6
434.719	24.95
434.926	-17.65
435.134	-9.86
435.341	43.79
435.548	73.28
435.756	97.86
435.963	-8.64
436.17	8.57
436.377	35.19
436.585	-30.34
436.792	-12.73
436.999	-32.8
437.206	-2.9
437.413	63.86
437.621	-32.8
437.828	60.18
438.035	24.95
438.242	16.76
438.449	46.25
438.656	23.31
438.863	50.76
439.07	6.93
439.277	63.86
439.484	-7
439.691	21.67
439.898	49.53
440.105	2.01
440.312	-32.8
440.519	-65.98
440.726	65.91
440.933	-53.28
441.14	17.99
441.347	3.65
441.553	16.76
441.76	46.66
441.967	44.2
442.174	12.66
442.381	-11.91
442.587	-42.63
442.794	2.42
443.001	-44.68
443.208	-4.54
443.414	94.17
443.621	26.59
443.828	20.45
444.035	21.26
444.241	-7.82
444.448	63.04
444.654	39.7
444.861	40.11
445.068	93.76
445.274	-23.38
445.481	-9.45
445.687	81.07
445.894	-16.83
446.101	49.12
446.307	90.49
446.514	-50
446.72	20.86
446.926	-13.14
447.133	12.66
447.339	-0.03
447.546	49.53
447.752	26.18
447.959	-54.51
448.165	-7
448.371	5.7
448.578	12.66
448.784	54.44
448.99	51.98
449.197	-58.2
449.403	49.94
449.609	9.8
449.816	69.19
450.022	-14.78
450.228	58.13
450.434	58.54
450.64	31.91
450.847	-8.23
451.053	66.32
451.259	-0.85
451.465	35.19
451.671	105.64
451.877	113.01
452.083	9.8
452.289	6.52
452.496	13.89
452.702	-29.93
452.908	18.4
453.114	69.19
453.32	-16.83
453.526	-21.33
453.732	-15.6
453.938	-2.49
454.144	31.09
